#Run started at 10:36:43 08/09/2020
#pop(t) 
 #fields: n_iteration, nstep, states population(t)  
#new iteration 
0.00000 0.00000 0.00000 1.00000 0.00000
0.00000 1.00000 0.10000 1.00000 0.00000
0.00000 2.00000 0.20000 1.00000 0.00000
0.00000 3.00000 0.30000 1.00000 0.00000
0.00000 4.00000 0.40000 1.00000 0.00000
0.00000 5.00000 0.50000 1.00000 0.00000
0.00000 6.00000 0.60000 0.99999 0.00001
0.00000 7.00000 0.70000 0.99999 0.00001
0.00000 8.00000 0.80000 0.99999 0.00001
0.00000 9.00000 0.90000 0.99999 0.00001
0.00000 10.00000 1.00000 0.99998 0.00002
0.00000 11.00000 1.10000 0.99998 0.00002
0.00000 12.00000 1.20000 0.99998 0.00002
0.00000 13.00000 1.30000 0.99997 0.00003
0.00000 14.00000 1.40000 0.99997 0.00003
0.00000 15.00000 1.50000 0.99997 0.00003
0.00000 16.00000 1.60000 0.99997 0.00003
0.00000 17.00000 1.70000 0.99996 0.00004
0.00000 18.00000 1.80000 0.99996 0.00004
0.00000 19.00000 1.90000 0.99996 0.00004
0.00000 20.00000 2.00000 0.99995 0.00005
0.00000 21.00000 2.10000 0.99995 0.00005
0.00000 22.00000 2.20000 0.99995 0.00005
0.00000 23.00000 2.30000 0.99995 0.00005
0.00000 24.00000 2.40000 0.99994 0.00006
0.00000 25.00000 2.50000 0.99994 0.00006
0.00000 26.00000 2.60000 0.99994 0.00006
0.00000 27.00000 2.70000 0.99994 0.00006
0.00000 28.00000 2.80000 0.99994 0.00006
0.00000 29.00000 2.90000 0.99993 0.00007
0.00000 30.00000 3.00000 0.99993 0.00007
0.00000 31.00000 3.10000 0.99993 0.00007
0.00000 32.00000 3.20000 0.99993 0.00007
0.00000 33.00000 3.30000 0.99993 0.00007
0.00000 34.00000 3.40000 0.99993 0.00007
0.00000 35.00000 3.50000 0.99993 0.00007
0.00000 36.00000 3.60000 0.99993 0.00007
0.00000 37.00000 3.70000 0.99993 0.00007
0.00000 38.00000 3.80000 0.99993 0.00007
0.00000 39.00000 3.90000 0.99993 0.00007
0.00000 40.00000 4.00000 0.99993 0.00007
0.00000 41.00000 4.10000 0.99993 0.00007
0.00000 42.00000 4.20000 0.99993 0.00007
0.00000 43.00000 4.30000 0.99993 0.00007
0.00000 44.00000 4.40000 0.99993 0.00007
0.00000 45.00000 4.50000 0.99993 0.00007
0.00000 46.00000 4.60000 0.99993 0.00007
0.00000 47.00000 4.70000 0.99993 0.00007
0.00000 48.00000 4.80000 0.99993 0.00007
0.00000 49.00000 4.90000 0.99993 0.00007
0.00000 50.00000 5.00000 0.99993 0.00007
0.00000 51.00000 5.10000 0.99993 0.00007
0.00000 52.00000 5.20000 0.99993 0.00007
0.00000 53.00000 5.30000 0.99993 0.00007
0.00000 54.00000 5.40000 0.99993 0.00007
0.00000 55.00000 5.50000 0.99993 0.00007
0.00000 56.00000 5.60000 0.99993 0.00007
0.00000 57.00000 5.70000 0.99993 0.00007
0.00000 58.00000 5.80000 0.99993 0.00007
0.00000 59.00000 5.90000 0.99993 0.00007
0.00000 60.00000 6.00000 0.99993 0.00007
0.00000 61.00000 6.10000 0.99993 0.00007
0.00000 62.00000 6.20000 0.99993 0.00007
0.00000 63.00000 6.30000 0.99993 0.00007
0.00000 64.00000 6.40000 0.99993 0.00007
0.00000 65.00000 6.50000 0.99993 0.00007
0.00000 66.00000 6.60000 0.99993 0.00007
0.00000 67.00000 6.70000 0.99993 0.00007
0.00000 68.00000 6.80000 0.99993 0.00007
0.00000 69.00000 6.90000 0.99993 0.00007
0.00000 70.00000 7.00000 0.99993 0.00007
0.00000 71.00000 7.10000 0.99993 0.00007
0.00000 72.00000 7.20000 0.99993 0.00007
0.00000 73.00000 7.30000 0.99993 0.00007
0.00000 74.00000 7.40000 0.99993 0.00007
0.00000 75.00000 7.50000 0.99993 0.00007
0.00000 76.00000 7.60000 0.99993 0.00007
0.00000 77.00000 7.70000 0.99993 0.00007
0.00000 78.00000 7.80000 0.99993 0.00007
0.00000 79.00000 7.90000 0.99993 0.00007
0.00000 80.00000 8.00000 0.99993 0.00007
0.00000 81.00000 8.10000 0.99993 0.00007
0.00000 82.00000 8.20000 0.99993 0.00007
0.00000 83.00000 8.30000 0.99993 0.00007
0.00000 84.00000 8.40000 0.99993 0.00007
0.00000 85.00000 8.50000 0.99994 0.00006
0.00000 86.00000 8.60000 0.99994 0.00006
0.00000 87.00000 8.70000 0.99994 0.00006
0.00000 88.00000 8.80000 0.99994 0.00006
0.00000 89.00000 8.90000 0.99994 0.00006
0.00000 90.00000 9.00000 0.99994 0.00006
0.00000 91.00000 9.10000 0.99995 0.00005
0.00000 92.00000 9.20000 0.99995 0.00005
0.00000 93.00000 9.30000 0.99995 0.00005
0.00000 94.00000 9.40000 0.99995 0.00005
0.00000 95.00000 9.50000 0.99996 0.00004
0.00000 96.00000 9.60000 0.99996 0.00004
0.00000 97.00000 9.70000 0.99996 0.00004
0.00000 98.00000 9.80000 0.99996 0.00004
0.00000 99.00000 9.90000 0.99997 0.00003
0.00000 100.00000 10.00000 0.99997 0.00003
0.00000 101.00000 10.10000 0.99997 0.00003
0.00000 102.00000 10.20000 0.99997 0.00003
0.00000 103.00000 10.30000 0.99998 0.00002
0.00000 104.00000 10.40000 0.99998 0.00002
0.00000 105.00000 10.50000 0.99998 0.00002
0.00000 106.00000 10.60000 0.99998 0.00002
0.00000 107.00000 10.70000 0.99998 0.00002
0.00000 108.00000 10.80000 0.99998 0.00002
0.00000 109.00000 10.90000 0.99998 0.00002
0.00000 110.00000 11.00000 0.99999 0.00001
0.00000 111.00000 11.10000 0.99998 0.00002
0.00000 112.00000 11.20000 0.99998 0.00002
0.00000 113.00000 11.30000 0.99998 0.00002
0.00000 114.00000 11.40000 0.99998 0.00002
0.00000 115.00000 11.50000 0.99998 0.00002
0.00000 116.00000 11.60000 0.99997 0.00003
0.00000 117.00000 11.70000 0.99997 0.00003
0.00000 118.00000 11.80000 0.99996 0.00004
0.00000 119.00000 11.90000 0.99995 0.00005
0.00000 120.00000 12.00000 0.99994 0.00006
0.00000 121.00000 12.10000 0.99994 0.00006
0.00000 122.00000 12.20000 0.99992 0.00008
0.00000 123.00000 12.30000 0.99991 0.00009
0.00000 124.00000 12.40000 0.99990 0.00010
0.00000 125.00000 12.50000 0.99988 0.00012
0.00000 126.00000 12.60000 0.99986 0.00014
0.00000 127.00000 12.70000 0.99985 0.00015
0.00000 128.00000 12.80000 0.99982 0.00018
0.00000 129.00000 12.90000 0.99980 0.00020
0.00000 130.00000 13.00000 0.99978 0.00022
0.00000 131.00000 13.10000 0.99975 0.00025
0.00000 132.00000 13.20000 0.99972 0.00028
0.00000 133.00000 13.30000 0.99969 0.00031
0.00000 134.00000 13.40000 0.99965 0.00035
0.00000 135.00000 13.50000 0.99962 0.00038
0.00000 136.00000 13.60000 0.99958 0.00042
0.00000 137.00000 13.70000 0.99954 0.00046
0.00000 138.00000 13.80000 0.99949 0.00051
0.00000 139.00000 13.90000 0.99945 0.00055
0.00000 140.00000 14.00000 0.99940 0.00060
0.00000 141.00000 14.10000 0.99934 0.00066
0.00000 142.00000 14.20000 0.99929 0.00071
0.00000 143.00000 14.30000 0.99923 0.00077
0.00000 144.00000 14.40000 0.99917 0.00083
0.00000 145.00000 14.50000 0.99910 0.00090
0.00000 146.00000 14.60000 0.99903 0.00097
0.00000 147.00000 14.70000 0.99896 0.00104
0.00000 148.00000 14.80000 0.99889 0.00111
0.00000 149.00000 14.90000 0.99881 0.00119
0.00000 150.00000 15.00000 0.99873 0.00127
0.00000 151.00000 15.10000 0.99865 0.00135
0.00000 152.00000 15.20000 0.99856 0.00144
0.00000 153.00000 15.30000 0.99847 0.00153
0.00000 154.00000 15.40000 0.99838 0.00162
0.00000 155.00000 15.50000 0.99828 0.00172
0.00000 156.00000 15.60000 0.99819 0.00181
0.00000 157.00000 15.70000 0.99808 0.00192
0.00000 158.00000 15.80000 0.99798 0.00202
0.00000 159.00000 15.90000 0.99787 0.00213
0.00000 160.00000 16.00000 0.99776 0.00224
0.00000 161.00000 16.10000 0.99765 0.00235
0.00000 162.00000 16.20000 0.99753 0.00247
0.00000 163.00000 16.30000 0.99741 0.00259
0.00000 164.00000 16.40000 0.99729 0.00271
0.00000 165.00000 16.50000 0.99717 0.00283
0.00000 166.00000 16.60000 0.99704 0.00296
0.00000 167.00000 16.70000 0.99691 0.00309
0.00000 168.00000 16.80000 0.99678 0.00322
0.00000 169.00000 16.90000 0.99665 0.00335
0.00000 170.00000 17.00000 0.99652 0.00348
0.00000 171.00000 17.10000 0.99638 0.00362
0.00000 172.00000 17.20000 0.99625 0.00375
0.00000 173.00000 17.30000 0.99611 0.00389
0.00000 174.00000 17.40000 0.99597 0.00403
0.00000 175.00000 17.50000 0.99583 0.00417
0.00000 176.00000 17.60000 0.99569 0.00431
0.00000 177.00000 17.70000 0.99555 0.00445
0.00000 178.00000 17.80000 0.99541 0.00459
0.00000 179.00000 17.90000 0.99526 0.00474
0.00000 180.00000 18.00000 0.99512 0.00488
0.00000 181.00000 18.10000 0.99498 0.00502
0.00000 182.00000 18.20000 0.99484 0.00516
0.00000 183.00000 18.30000 0.99470 0.00530
0.00000 184.00000 18.40000 0.99456 0.00544
0.00000 185.00000 18.50000 0.99442 0.00558
0.00000 186.00000 18.60000 0.99428 0.00572
0.00000 187.00000 18.70000 0.99415 0.00585
0.00000 188.00000 18.80000 0.99401 0.00599
0.00000 189.00000 18.90000 0.99388 0.00612
0.00000 190.00000 19.00000 0.99375 0.00625
0.00000 191.00000 19.10000 0.99362 0.00638
0.00000 192.00000 19.20000 0.99349 0.00651
0.00000 193.00000 19.30000 0.99337 0.00663
0.00000 194.00000 19.40000 0.99325 0.00675
0.00000 195.00000 19.50000 0.99313 0.00687
0.00000 196.00000 19.60000 0.99301 0.00699
0.00000 197.00000 19.70000 0.99290 0.00710
0.00000 198.00000 19.80000 0.99279 0.00721
0.00000 199.00000 19.90000 0.99269 0.00731
0.00000 200.00000 20.00000 0.99259 0.00741
0.00000 201.00000 20.10000 0.99249 0.00751
0.00000 202.00000 20.20000 0.99240 0.00760
0.00000 203.00000 20.30000 0.99231 0.00769
0.00000 204.00000 20.40000 0.99222 0.00778
0.00000 205.00000 20.50000 0.99214 0.00786
0.00000 206.00000 20.60000 0.99206 0.00794
0.00000 207.00000 20.70000 0.99199 0.00801
0.00000 208.00000 20.80000 0.99192 0.00808
0.00000 209.00000 20.90000 0.99186 0.00814
0.00000 210.00000 21.00000 0.99180 0.00820
0.00000 211.00000 21.10000 0.99175 0.00825
0.00000 212.00000 21.20000 0.99170 0.00830
0.00000 213.00000 21.30000 0.99166 0.00834
0.00000 214.00000 21.40000 0.99161 0.00839
0.00000 215.00000 21.50000 0.99158 0.00842
0.00000 216.00000 21.60000 0.99155 0.00845
0.00000 217.00000 21.70000 0.99152 0.00848
0.00000 218.00000 21.80000 0.99150 0.00850
0.00000 219.00000 21.90000 0.99148 0.00852
0.00000 220.00000 22.00000 0.99146 0.00854
0.00000 221.00000 22.10000 0.99145 0.00855
0.00000 222.00000 22.20000 0.99145 0.00855
0.00000 223.00000 22.30000 0.99144 0.00856
0.00000 224.00000 22.40000 0.99144 0.00856
0.00000 225.00000 22.50000 0.99145 0.00855
0.00000 226.00000 22.60000 0.99146 0.00854
0.00000 227.00000 22.70000 0.99147 0.00853
0.00000 228.00000 22.80000 0.99148 0.00852
0.00000 229.00000 22.90000 0.99150 0.00850
0.00000 230.00000 23.00000 0.99152 0.00848
0.00000 231.00000 23.10000 0.99153 0.00847
0.00000 232.00000 23.20000 0.99156 0.00844
0.00000 233.00000 23.30000 0.99158 0.00842
0.00000 234.00000 23.40000 0.99161 0.00839
0.00000 235.00000 23.50000 0.99163 0.00837
0.00000 236.00000 23.60000 0.99166 0.00834
0.00000 237.00000 23.70000 0.99169 0.00831
0.00000 238.00000 23.80000 0.99172 0.00828
0.00000 239.00000 23.90000 0.99175 0.00825
0.00000 240.00000 24.00000 0.99178 0.00822
0.00000 241.00000 24.10000 0.99180 0.00820
0.00000 242.00000 24.20000 0.99183 0.00817
0.00000 243.00000 24.30000 0.99185 0.00815
0.00000 244.00000 24.40000 0.99188 0.00812
0.00000 245.00000 24.50000 0.99190 0.00810
0.00000 246.00000 24.60000 0.99192 0.00808
0.00000 247.00000 24.70000 0.99193 0.00807
0.00000 248.00000 24.80000 0.99195 0.00805
0.00000 249.00000 24.90000 0.99196 0.00804
0.00000 250.00000 25.00000 0.99197 0.00803
0.00000 251.00000 25.10000 0.99197 0.00803
0.00000 252.00000 25.20000 0.99197 0.00803
0.00000 253.00000 25.30000 0.99197 0.00803
0.00000 254.00000 25.40000 0.99196 0.00804
0.00000 255.00000 25.50000 0.99194 0.00806
0.00000 256.00000 25.60000 0.99193 0.00807
0.00000 257.00000 25.70000 0.99190 0.00810
0.00000 258.00000 25.80000 0.99187 0.00813
0.00000 259.00000 25.90000 0.99184 0.00816
0.00000 260.00000 26.00000 0.99180 0.00820
0.00000 261.00000 26.10000 0.99175 0.00825
0.00000 262.00000 26.20000 0.99169 0.00831
0.00000 263.00000 26.30000 0.99163 0.00837
0.00000 264.00000 26.40000 0.99157 0.00843
0.00000 265.00000 26.50000 0.99149 0.00851
0.00000 266.00000 26.60000 0.99141 0.00859
0.00000 267.00000 26.70000 0.99132 0.00868
0.00000 268.00000 26.80000 0.99122 0.00878
0.00000 269.00000 26.90000 0.99112 0.00888
0.00000 270.00000 27.00000 0.99101 0.00899
0.00000 271.00000 27.10000 0.99089 0.00911
0.00000 272.00000 27.20000 0.99077 0.00923
0.00000 273.00000 27.30000 0.99063 0.00937
0.00000 274.00000 27.40000 0.99049 0.00951
0.00000 275.00000 27.50000 0.99035 0.00965
0.00000 276.00000 27.60000 0.99019 0.00981
0.00000 277.00000 27.70000 0.99003 0.00997
0.00000 278.00000 27.80000 0.98986 0.01014
0.00000 279.00000 27.90000 0.98968 0.01032
0.00000 280.00000 28.00000 0.98950 0.01050
0.00000 281.00000 28.10000 0.98931 0.01069
0.00000 282.00000 28.20000 0.98911 0.01089
0.00000 283.00000 28.30000 0.98891 0.01109
0.00000 284.00000 28.40000 0.98870 0.01130
0.00000 285.00000 28.50000 0.98848 0.01152
0.00000 286.00000 28.60000 0.98826 0.01174
0.00000 287.00000 28.70000 0.98803 0.01197
0.00000 288.00000 28.80000 0.98780 0.01220
0.00000 289.00000 28.90000 0.98756 0.01244
0.00000 290.00000 29.00000 0.98732 0.01268
0.00000 291.00000 29.10000 0.98707 0.01293
0.00000 292.00000 29.20000 0.98682 0.01318
0.00000 293.00000 29.30000 0.98657 0.01343
0.00000 294.00000 29.40000 0.98631 0.01369
0.00000 295.00000 29.50000 0.98605 0.01395
0.00000 296.00000 29.60000 0.98578 0.01422
0.00000 297.00000 29.70000 0.98551 0.01449
0.00000 298.00000 29.80000 0.98524 0.01476
0.00000 299.00000 29.90000 0.98497 0.01503
0.00000 300.00000 30.00000 0.98470 0.01530
0.00000 301.00000 30.10000 0.98443 0.01557
0.00000 302.00000 30.20000 0.98415 0.01585
0.00000 303.00000 30.30000 0.98388 0.01612
0.00000 304.00000 30.40000 0.98360 0.01640
0.00000 305.00000 30.50000 0.98333 0.01667
0.00000 306.00000 30.60000 0.98306 0.01694
0.00000 307.00000 30.70000 0.98279 0.01721
0.00000 308.00000 30.80000 0.98252 0.01748
0.00000 309.00000 30.90000 0.98225 0.01775
0.00000 310.00000 31.00000 0.98198 0.01802
0.00000 311.00000 31.10000 0.98172 0.01828
0.00000 312.00000 31.20000 0.98146 0.01854
0.00000 313.00000 31.30000 0.98121 0.01879
0.00000 314.00000 31.40000 0.98096 0.01904
0.00000 315.00000 31.50000 0.98071 0.01929
0.00000 316.00000 31.60000 0.98047 0.01953
0.00000 317.00000 31.70000 0.98023 0.01977
0.00000 318.00000 31.80000 0.98000 0.02000
0.00000 319.00000 31.90000 0.97978 0.02022
0.00000 320.00000 32.00000 0.97956 0.02044
0.00000 321.00000 32.10000 0.97934 0.02066
0.00000 322.00000 32.20000 0.97914 0.02086
0.00000 323.00000 32.30000 0.97893 0.02107
0.00000 324.00000 32.40000 0.97874 0.02126
0.00000 325.00000 32.50000 0.97855 0.02145
0.00000 326.00000 32.60000 0.97837 0.02163
0.00000 327.00000 32.70000 0.97820 0.02180
0.00000 328.00000 32.80000 0.97804 0.02196
0.00000 329.00000 32.90000 0.97787 0.02213
0.00000 330.00000 33.00000 0.97773 0.02227
0.00000 331.00000 33.10000 0.97758 0.02242
0.00000 332.00000 33.20000 0.97745 0.02255
0.00000 333.00000 33.30000 0.97732 0.02268
0.00000 334.00000 33.40000 0.97721 0.02279
0.00000 335.00000 33.50000 0.97709 0.02291
0.00000 336.00000 33.60000 0.97699 0.02301
0.00000 337.00000 33.70000 0.97689 0.02311
0.00000 338.00000 33.80000 0.97681 0.02319
0.00000 339.00000 33.90000 0.97672 0.02328
0.00000 340.00000 34.00000 0.97665 0.02335
0.00000 341.00000 34.10000 0.97659 0.02341
0.00000 342.00000 34.20000 0.97653 0.02347
0.00000 343.00000 34.30000 0.97648 0.02352
0.00000 344.00000 34.40000 0.97644 0.02356
0.00000 345.00000 34.50000 0.97640 0.02360
0.00000 346.00000 34.60000 0.97637 0.02363
0.00000 347.00000 34.70000 0.97634 0.02366
0.00000 348.00000 34.80000 0.97632 0.02368
0.00000 349.00000 34.90000 0.97631 0.02369
0.00000 350.00000 35.00000 0.97630 0.02370
0.00000 351.00000 35.10000 0.97630 0.02370
0.00000 352.00000 35.20000 0.97630 0.02370
0.00000 353.00000 35.30000 0.97631 0.02369
0.00000 354.00000 35.40000 0.97632 0.02368
0.00000 355.00000 35.50000 0.97633 0.02367
0.00000 356.00000 35.60000 0.97635 0.02365
0.00000 357.00000 35.70000 0.97637 0.02363
0.00000 358.00000 35.80000 0.97639 0.02361
0.00000 359.00000 35.90000 0.97642 0.02358
0.00000 360.00000 36.00000 0.97645 0.02355
0.00000 361.00000 36.10000 0.97648 0.02352
0.00000 362.00000 36.20000 0.97650 0.02350
0.00000 363.00000 36.30000 0.97654 0.02346
0.00000 364.00000 36.40000 0.97657 0.02343
0.00000 365.00000 36.50000 0.97660 0.02340
0.00000 366.00000 36.60000 0.97663 0.02337
0.00000 367.00000 36.70000 0.97666 0.02334
0.00000 368.00000 36.80000 0.97668 0.02332
0.00000 369.00000 36.90000 0.97671 0.02329
0.00000 370.00000 37.00000 0.97673 0.02327
0.00000 371.00000 37.10000 0.97676 0.02324
0.00000 372.00000 37.20000 0.97677 0.02323
0.00000 373.00000 37.30000 0.97679 0.02321
0.00000 374.00000 37.40000 0.97680 0.02320
0.00000 375.00000 37.50000 0.97681 0.02319
0.00000 376.00000 37.60000 0.97681 0.02319
0.00000 377.00000 37.70000 0.97681 0.02319
0.00000 378.00000 37.80000 0.97680 0.02320
0.00000 379.00000 37.90000 0.97680 0.02320
0.00000 380.00000 38.00000 0.97677 0.02323
0.00000 381.00000 38.10000 0.97675 0.02325
0.00000 382.00000 38.20000 0.97672 0.02328
0.00000 383.00000 38.30000 0.97669 0.02331
0.00000 384.00000 38.40000 0.97665 0.02335
0.00000 385.00000 38.50000 0.97660 0.02340
0.00000 386.00000 38.60000 0.97654 0.02346
0.00000 387.00000 38.70000 0.97648 0.02352
0.00000 388.00000 38.80000 0.97641 0.02359
0.00000 389.00000 38.90000 0.97634 0.02366
0.00000 390.00000 39.00000 0.97625 0.02375
0.00000 391.00000 39.10000 0.97616 0.02384
0.00000 392.00000 39.20000 0.97606 0.02394
0.00000 393.00000 39.30000 0.97595 0.02405
0.00000 394.00000 39.40000 0.97584 0.02416
0.00000 395.00000 39.50000 0.97572 0.02428
0.00000 396.00000 39.60000 0.97559 0.02441
0.00000 397.00000 39.70000 0.97545 0.02455
0.00000 398.00000 39.80000 0.97531 0.02469
0.00000 399.00000 39.90000 0.97515 0.02485
0.00000 400.00000 40.00000 0.97499 0.02501
0.00000 401.00000 40.10000 0.97483 0.02517
0.00000 402.00000 40.20000 0.97466 0.02534
0.00000 403.00000 40.30000 0.97447 0.02553
0.00000 404.00000 40.40000 0.97429 0.02571
0.00000 405.00000 40.50000 0.97409 0.02591
0.00000 406.00000 40.60000 0.97390 0.02610
0.00000 407.00000 40.70000 0.97369 0.02631
0.00000 408.00000 40.80000 0.97348 0.02652
0.00000 409.00000 40.90000 0.97326 0.02674
0.00000 410.00000 41.00000 0.97305 0.02695
0.00000 411.00000 41.10000 0.97282 0.02718
0.00000 412.00000 41.20000 0.97259 0.02741
0.00000 413.00000 41.30000 0.97235 0.02765
0.00000 414.00000 41.40000 0.97212 0.02788
0.00000 415.00000 41.50000 0.97188 0.02812
0.00000 416.00000 41.60000 0.97164 0.02836
0.00000 417.00000 41.70000 0.97139 0.02861
0.00000 418.00000 41.80000 0.97114 0.02886
0.00000 419.00000 41.90000 0.97089 0.02911
0.00000 420.00000 42.00000 0.97064 0.02936
0.00000 421.00000 42.10000 0.97038 0.02962
0.00000 422.00000 42.20000 0.97013 0.02987
0.00000 423.00000 42.30000 0.96987 0.03013
0.00000 424.00000 42.40000 0.96962 0.03038
0.00000 425.00000 42.50000 0.96936 0.03064
0.00000 426.00000 42.60000 0.96911 0.03089
0.00000 427.00000 42.70000 0.96886 0.03114
0.00000 428.00000 42.80000 0.96861 0.03139
0.00000 429.00000 42.90000 0.96836 0.03164
0.00000 430.00000 43.00000 0.96812 0.03188
0.00000 431.00000 43.10000 0.96788 0.03212
0.00000 432.00000 43.20000 0.96764 0.03236
0.00000 433.00000 43.30000 0.96740 0.03260
0.00000 434.00000 43.40000 0.96717 0.03283
0.00000 435.00000 43.50000 0.96694 0.03306
0.00000 436.00000 43.60000 0.96672 0.03328
0.00000 437.00000 43.70000 0.96650 0.03350
0.00000 438.00000 43.80000 0.96628 0.03372
0.00000 439.00000 43.90000 0.96608 0.03392
0.00000 440.00000 44.00000 0.96587 0.03413
0.00000 441.00000 44.10000 0.96568 0.03432
0.00000 442.00000 44.20000 0.96548 0.03452
0.00000 443.00000 44.30000 0.96530 0.03470
0.00000 444.00000 44.40000 0.96512 0.03488
0.00000 445.00000 44.50000 0.96495 0.03505
0.00000 446.00000 44.60000 0.96478 0.03522
0.00000 447.00000 44.70000 0.96463 0.03537
0.00000 448.00000 44.80000 0.96447 0.03553
0.00000 449.00000 44.90000 0.96433 0.03567
0.00000 450.00000 45.00000 0.96419 0.03581
0.00000 451.00000 45.10000 0.96407 0.03593
0.00000 452.00000 45.20000 0.96394 0.03606
0.00000 453.00000 45.30000 0.96383 0.03617
0.00000 454.00000 45.40000 0.96372 0.03628
0.00000 455.00000 45.50000 0.96363 0.03637
0.00000 456.00000 45.60000 0.96353 0.03647
0.00000 457.00000 45.70000 0.96345 0.03655
0.00000 458.00000 45.80000 0.96337 0.03663
0.00000 459.00000 45.90000 0.96331 0.03669
0.00000 460.00000 46.00000 0.96324 0.03676
0.00000 461.00000 46.10000 0.96319 0.03681
0.00000 462.00000 46.20000 0.96314 0.03686
0.00000 463.00000 46.30000 0.96310 0.03690
0.00000 464.00000 46.40000 0.96307 0.03693
0.00000 465.00000 46.50000 0.96305 0.03695
0.00000 466.00000 46.60000 0.96303 0.03697
0.00000 467.00000 46.70000 0.96302 0.03698
0.00000 468.00000 46.80000 0.96301 0.03699
0.00000 469.00000 46.90000 0.96302 0.03698
0.00000 470.00000 47.00000 0.96303 0.03697
0.00000 471.00000 47.10000 0.96304 0.03696
0.00000 472.00000 47.20000 0.96306 0.03694
0.00000 473.00000 47.30000 0.96310 0.03690
0.00000 474.00000 47.40000 0.96313 0.03687
0.00000 475.00000 47.50000 0.96317 0.03683
0.00000 476.00000 47.60000 0.96322 0.03678
0.00000 477.00000 47.70000 0.96328 0.03672
0.00000 478.00000 47.80000 0.96334 0.03666
0.00000 479.00000 47.90000 0.96341 0.03659
0.00000 480.00000 48.00000 0.96348 0.03652
0.00000 481.00000 48.10000 0.96356 0.03644
0.00000 482.00000 48.20000 0.96364 0.03636
0.00000 483.00000 48.30000 0.96373 0.03627
0.00000 484.00000 48.40000 0.96383 0.03617
0.00000 485.00000 48.50000 0.96393 0.03607
0.00000 486.00000 48.60000 0.96404 0.03596
0.00000 487.00000 48.70000 0.96416 0.03584
0.00000 488.00000 48.80000 0.96428 0.03572
0.00000 489.00000 48.90000 0.96440 0.03560
0.00000 490.00000 49.00000 0.96454 0.03546
0.00000 491.00000 49.10000 0.96468 0.03532
0.00000 492.00000 49.20000 0.96482 0.03518
0.00000 493.00000 49.30000 0.96497 0.03503
0.00000 494.00000 49.40000 0.96513 0.03487
0.00000 495.00000 49.50000 0.96530 0.03470
0.00000 496.00000 49.60000 0.96547 0.03453
0.00000 497.00000 49.70000 0.96565 0.03435
0.00000 498.00000 49.80000 0.96583 0.03417
0.00000 499.00000 49.90000 0.96602 0.03398
0.00000 500.00000 50.00000 0.96622 0.03378
0.00000 501.00000 50.10000 0.96642 0.03358
0.00000 502.00000 50.20000 0.96664 0.03336
0.00000 503.00000 50.30000 0.96686 0.03314
0.00000 504.00000 50.40000 0.96709 0.03291
0.00000 505.00000 50.50000 0.96732 0.03268
0.00000 506.00000 50.60000 0.96756 0.03244
0.00000 507.00000 50.70000 0.96780 0.03220
0.00000 508.00000 50.80000 0.96806 0.03194
0.00000 509.00000 50.90000 0.96832 0.03168
0.00000 510.00000 51.00000 0.96859 0.03141
0.00000 511.00000 51.10000 0.96886 0.03114
0.00000 512.00000 51.20000 0.96915 0.03085
0.00000 513.00000 51.30000 0.96943 0.03057
0.00000 514.00000 51.40000 0.96973 0.03027
0.00000 515.00000 51.50000 0.97003 0.02997
0.00000 516.00000 51.60000 0.97034 0.02966
0.00000 517.00000 51.70000 0.97065 0.02935
0.00000 518.00000 51.80000 0.97097 0.02903
0.00000 519.00000 51.90000 0.97129 0.02871
0.00000 520.00000 52.00000 0.97162 0.02838
0.00000 521.00000 52.10000 0.97195 0.02805
0.00000 522.00000 52.20000 0.97229 0.02771
0.00000 523.00000 52.30000 0.97263 0.02737
0.00000 524.00000 52.40000 0.97297 0.02703
0.00000 525.00000 52.50000 0.97332 0.02668
0.00000 526.00000 52.60000 0.97366 0.02634
0.00000 527.00000 52.70000 0.97401 0.02599
0.00000 528.00000 52.80000 0.97436 0.02564
0.00000 529.00000 52.90000 0.97470 0.02530
0.00000 530.00000 53.00000 0.97505 0.02495
0.00000 531.00000 53.10000 0.97539 0.02461
0.00000 532.00000 53.20000 0.97573 0.02427
0.00000 533.00000 53.30000 0.97606 0.02394
0.00000 534.00000 53.40000 0.97640 0.02360
0.00000 535.00000 53.50000 0.97672 0.02328
0.00000 536.00000 53.60000 0.97704 0.02296
0.00000 537.00000 53.70000 0.97734 0.02266
0.00000 538.00000 53.80000 0.97764 0.02236
0.00000 539.00000 53.90000 0.97793 0.02207
0.00000 540.00000 54.00000 0.97821 0.02179
0.00000 541.00000 54.10000 0.97848 0.02152
0.00000 542.00000 54.20000 0.97873 0.02127
0.00000 543.00000 54.30000 0.97896 0.02104
0.00000 544.00000 54.40000 0.97918 0.02082
0.00000 545.00000 54.50000 0.97939 0.02061
0.00000 546.00000 54.60000 0.97957 0.02043
0.00000 547.00000 54.70000 0.97974 0.02026
0.00000 548.00000 54.80000 0.97988 0.02012
0.00000 549.00000 54.90000 0.98000 0.02000
0.00000 550.00000 55.00000 0.98010 0.01990
0.00000 551.00000 55.10000 0.98017 0.01983
0.00000 552.00000 55.20000 0.98022 0.01978
0.00000 553.00000 55.30000 0.98025 0.01975
0.00000 554.00000 55.40000 0.98024 0.01976
0.00000 555.00000 55.50000 0.98021 0.01979
0.00000 556.00000 55.60000 0.98014 0.01986
0.00000 557.00000 55.70000 0.98005 0.01995
0.00000 558.00000 55.80000 0.97992 0.02008
0.00000 559.00000 55.90000 0.97977 0.02023
0.00000 560.00000 56.00000 0.97957 0.02043
0.00000 561.00000 56.10000 0.97935 0.02065
0.00000 562.00000 56.20000 0.97909 0.02091
0.00000 563.00000 56.30000 0.97880 0.02120
0.00000 564.00000 56.40000 0.97847 0.02153
0.00000 565.00000 56.50000 0.97811 0.02189
0.00000 566.00000 56.60000 0.97770 0.02230
0.00000 567.00000 56.70000 0.97727 0.02273
0.00000 568.00000 56.80000 0.97679 0.02321
0.00000 569.00000 56.90000 0.97628 0.02372
0.00000 570.00000 57.00000 0.97573 0.02427
0.00000 571.00000 57.10000 0.97515 0.02485
0.00000 572.00000 57.20000 0.97452 0.02548
0.00000 573.00000 57.30000 0.97387 0.02613
0.00000 574.00000 57.40000 0.97317 0.02683
0.00000 575.00000 57.50000 0.97244 0.02756
0.00000 576.00000 57.60000 0.97167 0.02833
0.00000 577.00000 57.70000 0.97087 0.02913
0.00000 578.00000 57.80000 0.97003 0.02997
0.00000 579.00000 57.90000 0.96916 0.03084
0.00000 580.00000 58.00000 0.96825 0.03175
0.00000 581.00000 58.10000 0.96732 0.03268
0.00000 582.00000 58.20000 0.96635 0.03365
0.00000 583.00000 58.30000 0.96535 0.03465
0.00000 584.00000 58.40000 0.96432 0.03568
0.00000 585.00000 58.50000 0.96327 0.03673
0.00000 586.00000 58.60000 0.96218 0.03782
0.00000 587.00000 58.70000 0.96108 0.03892
0.00000 588.00000 58.80000 0.95995 0.04005
0.00000 589.00000 58.90000 0.95879 0.04121
0.00000 590.00000 59.00000 0.95761 0.04239
0.00000 591.00000 59.10000 0.95642 0.04358
0.00000 592.00000 59.20000 0.95520 0.04480
0.00000 593.00000 59.30000 0.95397 0.04603
0.00000 594.00000 59.40000 0.95273 0.04727
0.00000 595.00000 59.50000 0.95147 0.04853
0.00000 596.00000 59.60000 0.95020 0.04980
0.00000 597.00000 59.70000 0.94892 0.05108
0.00000 598.00000 59.80000 0.94763 0.05237
0.00000 599.00000 59.90000 0.94633 0.05367
0.00000 600.00000 60.00000 0.94503 0.05497
0.00000 601.00000 60.10000 0.94373 0.05627
0.00000 602.00000 60.20000 0.94243 0.05757
0.00000 603.00000 60.30000 0.94112 0.05888
0.00000 604.00000 60.40000 0.93982 0.06018
0.00000 605.00000 60.50000 0.93853 0.06147
0.00000 606.00000 60.60000 0.93724 0.06276
0.00000 607.00000 60.70000 0.93595 0.06405
0.00000 608.00000 60.80000 0.93469 0.06531
0.00000 609.00000 60.90000 0.93342 0.06658
0.00000 610.00000 61.00000 0.93218 0.06782
0.00000 611.00000 61.10000 0.93094 0.06906
0.00000 612.00000 61.20000 0.92973 0.07027
0.00000 613.00000 61.30000 0.92853 0.07147
0.00000 614.00000 61.40000 0.92735 0.07265
0.00000 615.00000 61.50000 0.92619 0.07381
0.00000 616.00000 61.60000 0.92506 0.07494
0.00000 617.00000 61.70000 0.92394 0.07606
0.00000 618.00000 61.80000 0.92285 0.07715
0.00000 619.00000 61.90000 0.92179 0.07821
0.00000 620.00000 62.00000 0.92076 0.07924
0.00000 621.00000 62.10000 0.91974 0.08026
0.00000 622.00000 62.20000 0.91877 0.08123
0.00000 623.00000 62.30000 0.91782 0.08218
0.00000 624.00000 62.40000 0.91691 0.08309
0.00000 625.00000 62.50000 0.91602 0.08398
0.00000 626.00000 62.60000 0.91517 0.08483
0.00000 627.00000 62.70000 0.91435 0.08565
0.00000 628.00000 62.80000 0.91357 0.08643
0.00000 629.00000 62.90000 0.91281 0.08719
0.00000 630.00000 63.00000 0.91210 0.08790
0.00000 631.00000 63.10000 0.91142 0.08858
0.00000 632.00000 63.20000 0.91078 0.08922
0.00000 633.00000 63.30000 0.91016 0.08984
0.00000 634.00000 63.40000 0.90959 0.09041
0.00000 635.00000 63.50000 0.90905 0.09095
0.00000 636.00000 63.60000 0.90855 0.09145
0.00000 637.00000 63.70000 0.90809 0.09191
0.00000 638.00000 63.80000 0.90766 0.09234
0.00000 639.00000 63.90000 0.90726 0.09274
0.00000 640.00000 64.00000 0.90690 0.09310
0.00000 641.00000 64.10000 0.90657 0.09343
0.00000 642.00000 64.20000 0.90628 0.09372
0.00000 643.00000 64.30000 0.90603 0.09397
0.00000 644.00000 64.40000 0.90580 0.09420
0.00000 645.00000 64.50000 0.90561 0.09439
0.00000 646.00000 64.60000 0.90545 0.09455
0.00000 647.00000 64.70000 0.90532 0.09468
0.00000 648.00000 64.80000 0.90522 0.09478
0.00000 649.00000 64.90000 0.90515 0.09485
0.00000 650.00000 65.00000 0.90511 0.09489
0.00000 651.00000 65.10000 0.90510 0.09490
0.00000 652.00000 65.20000 0.90511 0.09489
0.00000 653.00000 65.30000 0.90516 0.09484
0.00000 654.00000 65.40000 0.90522 0.09478
0.00000 655.00000 65.50000 0.90531 0.09469
0.00000 656.00000 65.60000 0.90542 0.09458
0.00000 657.00000 65.70000 0.90555 0.09445
0.00000 658.00000 65.80000 0.90570 0.09430
0.00000 659.00000 65.90000 0.90588 0.09412
0.00000 660.00000 66.00000 0.90606 0.09394
0.00000 661.00000 66.10000 0.90628 0.09372
0.00000 662.00000 66.20000 0.90649 0.09351
0.00000 663.00000 66.30000 0.90674 0.09326
0.00000 664.00000 66.40000 0.90698 0.09302
0.00000 665.00000 66.50000 0.90725 0.09275
0.00000 666.00000 66.60000 0.90752 0.09248
0.00000 667.00000 66.70000 0.90781 0.09219
0.00000 668.00000 66.80000 0.90809 0.09191
0.00000 669.00000 66.90000 0.90840 0.09160
0.00000 670.00000 67.00000 0.90870 0.09130
0.00000 671.00000 67.10000 0.90901 0.09099
0.00000 672.00000 67.20000 0.90932 0.09068
0.00000 673.00000 67.30000 0.90965 0.09035
0.00000 674.00000 67.40000 0.90996 0.09004
0.00000 675.00000 67.50000 0.91029 0.08971
0.00000 676.00000 67.60000 0.91060 0.08940
0.00000 677.00000 67.70000 0.91093 0.08907
0.00000 678.00000 67.80000 0.91124 0.08876
0.00000 679.00000 67.90000 0.91156 0.08844
0.00000 680.00000 68.00000 0.91187 0.08813
0.00000 681.00000 68.10000 0.91218 0.08782
0.00000 682.00000 68.20000 0.91248 0.08752
0.00000 683.00000 68.30000 0.91278 0.08722
0.00000 684.00000 68.40000 0.91307 0.08693
0.00000 685.00000 68.50000 0.91335 0.08665
0.00000 686.00000 68.60000 0.91363 0.08637
0.00000 687.00000 68.70000 0.91390 0.08610
0.00000 688.00000 68.80000 0.91415 0.08585
0.00000 689.00000 68.90000 0.91441 0.08559
0.00000 690.00000 69.00000 0.91465 0.08535
0.00000 691.00000 69.10000 0.91488 0.08512
0.00000 692.00000 69.20000 0.91510 0.08490
0.00000 693.00000 69.30000 0.91531 0.08469
0.00000 694.00000 69.40000 0.91552 0.08448
0.00000 695.00000 69.50000 0.91571 0.08429
0.00000 696.00000 69.60000 0.91589 0.08411
0.00000 697.00000 69.70000 0.91606 0.08394
0.00000 698.00000 69.80000 0.91623 0.08377
0.00000 699.00000 69.90000 0.91638 0.08362
0.00000 700.00000 70.00000 0.91652 0.08348
0.00000 701.00000 70.10000 0.91665 0.08335
0.00000 702.00000 70.20000 0.91678 0.08322
0.00000 703.00000 70.30000 0.91689 0.08311
0.00000 704.00000 70.40000 0.91700 0.08300
0.00000 705.00000 70.50000 0.91710 0.08290
0.00000 706.00000 70.60000 0.91719 0.08281
0.00000 707.00000 70.70000 0.91727 0.08273
0.00000 708.00000 70.80000 0.91735 0.08265
0.00000 709.00000 70.90000 0.91741 0.08259
0.00000 710.00000 71.00000 0.91748 0.08252
0.00000 711.00000 71.10000 0.91754 0.08246
0.00000 712.00000 71.20000 0.91759 0.08241
0.00000 713.00000 71.30000 0.91764 0.08236
0.00000 714.00000 71.40000 0.91769 0.08231
0.00000 715.00000 71.50000 0.91772 0.08228
0.00000 716.00000 71.60000 0.91777 0.08223
0.00000 717.00000 71.70000 0.91780 0.08220
0.00000 718.00000 71.80000 0.91784 0.08216
0.00000 719.00000 71.90000 0.91786 0.08214
0.00000 720.00000 72.00000 0.91790 0.08210
0.00000 721.00000 72.10000 0.91793 0.08207
0.00000 722.00000 72.20000 0.91796 0.08204
0.00000 723.00000 72.30000 0.91799 0.08201
0.00000 724.00000 72.40000 0.91803 0.08197
0.00000 725.00000 72.50000 0.91806 0.08194
0.00000 726.00000 72.60000 0.91810 0.08190
0.00000 727.00000 72.70000 0.91813 0.08187
0.00000 728.00000 72.80000 0.91818 0.08182
0.00000 729.00000 72.90000 0.91822 0.08178
0.00000 730.00000 73.00000 0.91827 0.08173
0.00000 731.00000 73.10000 0.91831 0.08169
0.00000 732.00000 73.20000 0.91837 0.08163
0.00000 733.00000 73.30000 0.91842 0.08158
0.00000 734.00000 73.40000 0.91848 0.08152
0.00000 735.00000 73.50000 0.91854 0.08146
0.00000 736.00000 73.60000 0.91860 0.08140
0.00000 737.00000 73.70000 0.91867 0.08133
0.00000 738.00000 73.80000 0.91874 0.08126
0.00000 739.00000 73.90000 0.91881 0.08119
0.00000 740.00000 74.00000 0.91888 0.08112
0.00000 741.00000 74.10000 0.91895 0.08105
0.00000 742.00000 74.20000 0.91902 0.08098
0.00000 743.00000 74.30000 0.91909 0.08091
0.00000 744.00000 74.40000 0.91916 0.08084
0.00000 745.00000 74.50000 0.91924 0.08076
0.00000 746.00000 74.60000 0.91930 0.08070
0.00000 747.00000 74.70000 0.91937 0.08063
0.00000 748.00000 74.80000 0.91943 0.08057
0.00000 749.00000 74.90000 0.91949 0.08051
0.00000 750.00000 75.00000 0.91954 0.08046
0.00000 751.00000 75.10000 0.91959 0.08041
0.00000 752.00000 75.20000 0.91963 0.08037
0.00000 753.00000 75.30000 0.91966 0.08034
0.00000 754.00000 75.40000 0.91968 0.08032
0.00000 755.00000 75.50000 0.91969 0.08031
0.00000 756.00000 75.60000 0.91969 0.08031
0.00000 757.00000 75.70000 0.91968 0.08032
0.00000 758.00000 75.80000 0.91965 0.08035
0.00000 759.00000 75.90000 0.91962 0.08038
0.00000 760.00000 76.00000 0.91956 0.08044
0.00000 761.00000 76.10000 0.91949 0.08051
0.00000 762.00000 76.20000 0.91940 0.08060
0.00000 763.00000 76.30000 0.91930 0.08070
0.00000 764.00000 76.40000 0.91916 0.08084
0.00000 765.00000 76.50000 0.91902 0.08098
0.00000 766.00000 76.60000 0.91884 0.08116
0.00000 767.00000 76.70000 0.91866 0.08134
0.00000 768.00000 76.80000 0.91844 0.08156
0.00000 769.00000 76.90000 0.91820 0.08180
0.00000 770.00000 77.00000 0.91793 0.08207
0.00000 771.00000 77.10000 0.91765 0.08235
0.00000 772.00000 77.20000 0.91733 0.08267
0.00000 773.00000 77.30000 0.91699 0.08301
0.00000 774.00000 77.40000 0.91661 0.08339
0.00000 775.00000 77.50000 0.91622 0.08378
0.00000 776.00000 77.60000 0.91579 0.08421
0.00000 777.00000 77.70000 0.91534 0.08466
0.00000 778.00000 77.80000 0.91485 0.08515
0.00000 779.00000 77.90000 0.91434 0.08566
0.00000 780.00000 78.00000 0.91380 0.08620
0.00000 781.00000 78.10000 0.91323 0.08677
0.00000 782.00000 78.20000 0.91263 0.08737
0.00000 783.00000 78.30000 0.91201 0.08799
0.00000 784.00000 78.40000 0.91135 0.08865
0.00000 785.00000 78.50000 0.91068 0.08932
0.00000 786.00000 78.60000 0.90996 0.09004
0.00000 787.00000 78.70000 0.90923 0.09077
0.00000 788.00000 78.80000 0.90847 0.09153
0.00000 789.00000 78.90000 0.90769 0.09231
0.00000 790.00000 79.00000 0.90688 0.09312
0.00000 791.00000 79.10000 0.90605 0.09395
0.00000 792.00000 79.20000 0.90519 0.09481
0.00000 793.00000 79.30000 0.90432 0.09568
0.00000 794.00000 79.40000 0.90342 0.09658
0.00000 795.00000 79.50000 0.90251 0.09749
0.00000 796.00000 79.60000 0.90158 0.09842
0.00000 797.00000 79.70000 0.90063 0.09937
0.00000 798.00000 79.80000 0.89967 0.10033
0.00000 799.00000 79.90000 0.89870 0.10130
0.00000 800.00000 80.00000 0.89772 0.10228
0.00000 801.00000 80.10000 0.89672 0.10328
0.00000 802.00000 80.20000 0.89572 0.10428
0.00000 803.00000 80.30000 0.89471 0.10529
0.00000 804.00000 80.40000 0.89370 0.10630
0.00000 805.00000 80.50000 0.89268 0.10732
0.00000 806.00000 80.60000 0.89166 0.10834
0.00000 807.00000 80.70000 0.89064 0.10936
0.00000 808.00000 80.80000 0.88962 0.11038
0.00000 809.00000 80.90000 0.88861 0.11139
0.00000 810.00000 81.00000 0.88760 0.11240
0.00000 811.00000 81.10000 0.88660 0.11340
0.00000 812.00000 81.20000 0.88561 0.11439
0.00000 813.00000 81.30000 0.88462 0.11538
0.00000 814.00000 81.40000 0.88366 0.11634
0.00000 815.00000 81.50000 0.88269 0.11731
0.00000 816.00000 81.60000 0.88176 0.11824
0.00000 817.00000 81.70000 0.88083 0.11917
0.00000 818.00000 81.80000 0.87992 0.12008
0.00000 819.00000 81.90000 0.87903 0.12097
0.00000 820.00000 82.00000 0.87817 0.12183
0.00000 821.00000 82.10000 0.87732 0.12268
0.00000 822.00000 82.20000 0.87650 0.12350
0.00000 823.00000 82.30000 0.87569 0.12431
0.00000 824.00000 82.40000 0.87493 0.12507
0.00000 825.00000 82.50000 0.87417 0.12583
0.00000 826.00000 82.60000 0.87346 0.12654
0.00000 827.00000 82.70000 0.87276 0.12724
0.00000 828.00000 82.80000 0.87210 0.12790
0.00000 829.00000 82.90000 0.87146 0.12854
0.00000 830.00000 83.00000 0.87087 0.12913
0.00000 831.00000 83.10000 0.87029 0.12971
0.00000 832.00000 83.20000 0.86975 0.13025
0.00000 833.00000 83.30000 0.86923 0.13077
0.00000 834.00000 83.40000 0.86876 0.13124
0.00000 835.00000 83.50000 0.86830 0.13170
0.00000 836.00000 83.60000 0.86789 0.13211
0.00000 837.00000 83.70000 0.86750 0.13250
0.00000 838.00000 83.80000 0.86715 0.13285
0.00000 839.00000 83.90000 0.86683 0.13317
0.00000 840.00000 84.00000 0.86654 0.13346
0.00000 841.00000 84.10000 0.86628 0.13372
0.00000 842.00000 84.20000 0.86605 0.13395
0.00000 843.00000 84.30000 0.86585 0.13415
0.00000 844.00000 84.40000 0.86568 0.13432
0.00000 845.00000 84.50000 0.86554 0.13446
0.00000 846.00000 84.60000 0.86542 0.13458
0.00000 847.00000 84.70000 0.86534 0.13466
0.00000 848.00000 84.80000 0.86528 0.13472
0.00000 849.00000 84.90000 0.86524 0.13476
0.00000 850.00000 85.00000 0.86523 0.13477
0.00000 851.00000 85.10000 0.86525 0.13475
0.00000 852.00000 85.20000 0.86529 0.13471
0.00000 853.00000 85.30000 0.86535 0.13465
0.00000 854.00000 85.40000 0.86543 0.13457
0.00000 855.00000 85.50000 0.86553 0.13447
0.00000 856.00000 85.60000 0.86565 0.13435
0.00000 857.00000 85.70000 0.86578 0.13422
0.00000 858.00000 85.80000 0.86593 0.13407
0.00000 859.00000 85.90000 0.86610 0.13390
0.00000 860.00000 86.00000 0.86628 0.13372
0.00000 861.00000 86.10000 0.86648 0.13352
0.00000 862.00000 86.20000 0.86668 0.13332
0.00000 863.00000 86.30000 0.86690 0.13310
0.00000 864.00000 86.40000 0.86712 0.13288
0.00000 865.00000 86.50000 0.86736 0.13264
0.00000 866.00000 86.60000 0.86760 0.13240
0.00000 867.00000 86.70000 0.86785 0.13215
0.00000 868.00000 86.80000 0.86809 0.13191
0.00000 869.00000 86.90000 0.86835 0.13165
0.00000 870.00000 87.00000 0.86860 0.13140
0.00000 871.00000 87.10000 0.86886 0.13114
0.00000 872.00000 87.20000 0.86911 0.13089
0.00000 873.00000 87.30000 0.86937 0.13063
0.00000 874.00000 87.40000 0.86962 0.13038
0.00000 875.00000 87.50000 0.86988 0.13012
0.00000 876.00000 87.60000 0.87012 0.12988
0.00000 877.00000 87.70000 0.87036 0.12964
0.00000 878.00000 87.80000 0.87059 0.12941
0.00000 879.00000 87.90000 0.87083 0.12917
0.00000 880.00000 88.00000 0.87104 0.12896
0.00000 881.00000 88.10000 0.87126 0.12874
0.00000 882.00000 88.20000 0.87146 0.12854
0.00000 883.00000 88.30000 0.87166 0.12834
0.00000 884.00000 88.40000 0.87184 0.12816
0.00000 885.00000 88.50000 0.87202 0.12798
0.00000 886.00000 88.60000 0.87218 0.12782
0.00000 887.00000 88.70000 0.87234 0.12766
0.00000 888.00000 88.80000 0.87248 0.12752
0.00000 889.00000 88.90000 0.87261 0.12739
0.00000 890.00000 89.00000 0.87273 0.12727
0.00000 891.00000 89.10000 0.87284 0.12716
0.00000 892.00000 89.20000 0.87293 0.12707
0.00000 893.00000 89.30000 0.87301 0.12699
0.00000 894.00000 89.40000 0.87308 0.12692
0.00000 895.00000 89.50000 0.87313 0.12687
0.00000 896.00000 89.60000 0.87318 0.12682
0.00000 897.00000 89.70000 0.87321 0.12679
0.00000 898.00000 89.80000 0.87323 0.12677
0.00000 899.00000 89.90000 0.87323 0.12677
0.00000 900.00000 90.00000 0.87323 0.12677
0.00000 901.00000 90.10000 0.87321 0.12679
0.00000 902.00000 90.20000 0.87318 0.12682
0.00000 903.00000 90.30000 0.87314 0.12686
0.00000 904.00000 90.40000 0.87309 0.12691
0.00000 905.00000 90.50000 0.87303 0.12697
0.00000 906.00000 90.60000 0.87296 0.12704
0.00000 907.00000 90.70000 0.87288 0.12712
0.00000 908.00000 90.80000 0.87280 0.12720
0.00000 909.00000 90.90000 0.87269 0.12731
0.00000 910.00000 91.00000 0.87260 0.12740
0.00000 911.00000 91.10000 0.87248 0.12752
0.00000 912.00000 91.20000 0.87237 0.12763
0.00000 913.00000 91.30000 0.87224 0.12776
0.00000 914.00000 91.40000 0.87212 0.12788
0.00000 915.00000 91.50000 0.87198 0.12802
0.00000 916.00000 91.60000 0.87185 0.12815
0.00000 917.00000 91.70000 0.87170 0.12830
0.00000 918.00000 91.80000 0.87156 0.12844
0.00000 919.00000 91.90000 0.87141 0.12859
0.00000 920.00000 92.00000 0.87127 0.12873
0.00000 921.00000 92.10000 0.87112 0.12888
0.00000 922.00000 92.20000 0.87098 0.12902
0.00000 923.00000 92.30000 0.87082 0.12918
0.00000 924.00000 92.40000 0.87068 0.12932
0.00000 925.00000 92.50000 0.87053 0.12947
0.00000 926.00000 92.60000 0.87039 0.12961
0.00000 927.00000 92.70000 0.87025 0.12975
0.00000 928.00000 92.80000 0.87011 0.12989
0.00000 929.00000 92.90000 0.86997 0.13003
0.00000 930.00000 93.00000 0.86985 0.13015
0.00000 931.00000 93.10000 0.86972 0.13028
0.00000 932.00000 93.20000 0.86960 0.13040
0.00000 933.00000 93.30000 0.86948 0.13052
0.00000 934.00000 93.40000 0.86937 0.13063
0.00000 935.00000 93.50000 0.86926 0.13074
0.00000 936.00000 93.60000 0.86916 0.13084
0.00000 937.00000 93.70000 0.86907 0.13093
0.00000 938.00000 93.80000 0.86898 0.13102
0.00000 939.00000 93.90000 0.86890 0.13110
0.00000 940.00000 94.00000 0.86882 0.13118
0.00000 941.00000 94.10000 0.86875 0.13125
0.00000 942.00000 94.20000 0.86869 0.13131
0.00000 943.00000 94.30000 0.86863 0.13137
0.00000 944.00000 94.40000 0.86858 0.13142
0.00000 945.00000 94.50000 0.86853 0.13147
0.00000 946.00000 94.60000 0.86849 0.13151
0.00000 947.00000 94.70000 0.86846 0.13154
0.00000 948.00000 94.80000 0.86843 0.13157
0.00000 949.00000 94.90000 0.86840 0.13160
0.00000 950.00000 95.00000 0.86838 0.13162
0.00000 951.00000 95.10000 0.86837 0.13163
0.00000 952.00000 95.20000 0.86835 0.13165
0.00000 953.00000 95.30000 0.86835 0.13165
0.00000 954.00000 95.40000 0.86834 0.13166
0.00000 955.00000 95.50000 0.86834 0.13166
0.00000 956.00000 95.60000 0.86833 0.13167
0.00000 957.00000 95.70000 0.86834 0.13166
0.00000 958.00000 95.80000 0.86833 0.13167
0.00000 959.00000 95.90000 0.86834 0.13166
0.00000 960.00000 96.00000 0.86833 0.13167
0.00000 961.00000 96.10000 0.86834 0.13166
0.00000 962.00000 96.20000 0.86833 0.13167
0.00000 963.00000 96.30000 0.86833 0.13167
0.00000 964.00000 96.40000 0.86832 0.13168
0.00000 965.00000 96.50000 0.86831 0.13169
0.00000 966.00000 96.60000 0.86829 0.13171
0.00000 967.00000 96.70000 0.86828 0.13172
0.00000 968.00000 96.80000 0.86825 0.13175
0.00000 969.00000 96.90000 0.86822 0.13178
0.00000 970.00000 97.00000 0.86818 0.13182
0.00000 971.00000 97.10000 0.86814 0.13186
0.00000 972.00000 97.20000 0.86809 0.13191
0.00000 973.00000 97.30000 0.86804 0.13196
0.00000 974.00000 97.40000 0.86796 0.13204
0.00000 975.00000 97.50000 0.86789 0.13211
0.00000 976.00000 97.60000 0.86780 0.13220
0.00000 977.00000 97.70000 0.86772 0.13228
0.00000 978.00000 97.80000 0.86761 0.13239
0.00000 979.00000 97.90000 0.86750 0.13250
0.00000 980.00000 98.00000 0.86737 0.13263
0.00000 981.00000 98.10000 0.86724 0.13276
0.00000 982.00000 98.20000 0.86710 0.13290
0.00000 983.00000 98.30000 0.86695 0.13305
0.00000 984.00000 98.40000 0.86678 0.13322
0.00000 985.00000 98.50000 0.86661 0.13339
0.00000 986.00000 98.60000 0.86642 0.13358
0.00000 987.00000 98.70000 0.86622 0.13378
0.00000 988.00000 98.80000 0.86601 0.13399
0.00000 989.00000 98.90000 0.86580 0.13420
0.00000 990.00000 99.00000 0.86557 0.13443
0.00000 991.00000 99.10000 0.86533 0.13467
0.00000 992.00000 99.20000 0.86509 0.13491
0.00000 993.00000 99.30000 0.86483 0.13517
0.00000 994.00000 99.40000 0.86457 0.13543
0.00000 995.00000 99.50000 0.86430 0.13570
0.00000 996.00000 99.60000 0.86402 0.13598
0.00000 997.00000 99.70000 0.86373 0.13627
0.00000 998.00000 99.80000 0.86344 0.13656
0.00000 999.00000 99.90000 0.86314 0.13686
0.00000 1000.00000 100.00000 0.86284 0.13716
0.00000 1001.00000 100.10000 0.86253 0.13747
0.00000 1002.00000 100.20000 0.86222 0.13778
0.00000 1003.00000 100.30000 0.86190 0.13810
0.00000 1004.00000 100.40000 0.86158 0.13842
0.00000 1005.00000 100.50000 0.86126 0.13874
0.00000 1006.00000 100.60000 0.86094 0.13906
0.00000 1007.00000 100.70000 0.86061 0.13939
0.00000 1008.00000 100.80000 0.86030 0.13970
0.00000 1009.00000 100.90000 0.85997 0.14003
0.00000 1010.00000 101.00000 0.85965 0.14035
0.00000 1011.00000 101.10000 0.85933 0.14067
0.00000 1012.00000 101.20000 0.85902 0.14098
0.00000 1013.00000 101.30000 0.85871 0.14129
0.00000 1014.00000 101.40000 0.85841 0.14159
0.00000 1015.00000 101.50000 0.85810 0.14190
0.00000 1016.00000 101.60000 0.85781 0.14219
0.00000 1017.00000 101.70000 0.85752 0.14248
0.00000 1018.00000 101.80000 0.85724 0.14276
0.00000 1019.00000 101.90000 0.85696 0.14304
0.00000 1020.00000 102.00000 0.85670 0.14330
0.00000 1021.00000 102.10000 0.85644 0.14356
0.00000 1022.00000 102.20000 0.85620 0.14380
0.00000 1023.00000 102.30000 0.85595 0.14405
0.00000 1024.00000 102.40000 0.85573 0.14427
0.00000 1025.00000 102.50000 0.85550 0.14450
0.00000 1026.00000 102.60000 0.85530 0.14470
0.00000 1027.00000 102.70000 0.85509 0.14491
0.00000 1028.00000 102.80000 0.85491 0.14509
0.00000 1029.00000 102.90000 0.85472 0.14528
0.00000 1030.00000 103.00000 0.85456 0.14544
0.00000 1031.00000 103.10000 0.85440 0.14560
0.00000 1032.00000 103.20000 0.85426 0.14574
0.00000 1033.00000 103.30000 0.85411 0.14589
0.00000 1034.00000 103.40000 0.85399 0.14601
0.00000 1035.00000 103.50000 0.85387 0.14613
0.00000 1036.00000 103.60000 0.85377 0.14623
0.00000 1037.00000 103.70000 0.85367 0.14633
0.00000 1038.00000 103.80000 0.85359 0.14641
0.00000 1039.00000 103.90000 0.85351 0.14649
0.00000 1040.00000 104.00000 0.85345 0.14655
0.00000 1041.00000 104.10000 0.85339 0.14661
0.00000 1042.00000 104.20000 0.85334 0.14666
0.00000 1043.00000 104.30000 0.85329 0.14671
0.00000 1044.00000 104.40000 0.85326 0.14674
0.00000 1045.00000 104.50000 0.85323 0.14677
0.00000 1046.00000 104.60000 0.85320 0.14680
0.00000 1047.00000 104.70000 0.85318 0.14682
0.00000 1048.00000 104.80000 0.85317 0.14683
0.00000 1049.00000 104.90000 0.85316 0.14684
0.00000 1050.00000 105.00000 0.85316 0.14684
0.00000 1051.00000 105.10000 0.85315 0.14685
0.00000 1052.00000 105.20000 0.85315 0.14685
0.00000 1053.00000 105.30000 0.85315 0.14685
0.00000 1054.00000 105.40000 0.85315 0.14685
0.00000 1055.00000 105.50000 0.85316 0.14684
0.00000 1056.00000 105.60000 0.85316 0.14684
0.00000 1057.00000 105.70000 0.85316 0.14684
0.00000 1058.00000 105.80000 0.85316 0.14684
0.00000 1059.00000 105.90000 0.85316 0.14684
0.00000 1060.00000 106.00000 0.85316 0.14684
0.00000 1061.00000 106.10000 0.85316 0.14684
0.00000 1062.00000 106.20000 0.85314 0.14686
0.00000 1063.00000 106.30000 0.85313 0.14687
0.00000 1064.00000 106.40000 0.85311 0.14689
0.00000 1065.00000 106.50000 0.85310 0.14690
0.00000 1066.00000 106.60000 0.85307 0.14693
0.00000 1067.00000 106.70000 0.85304 0.14696
0.00000 1068.00000 106.80000 0.85300 0.14700
0.00000 1069.00000 106.90000 0.85297 0.14703
0.00000 1070.00000 107.00000 0.85291 0.14709
0.00000 1071.00000 107.10000 0.85287 0.14713
0.00000 1072.00000 107.20000 0.85280 0.14720
0.00000 1073.00000 107.30000 0.85274 0.14726
0.00000 1074.00000 107.40000 0.85267 0.14733
0.00000 1075.00000 107.50000 0.85260 0.14740
0.00000 1076.00000 107.60000 0.85251 0.14749
0.00000 1077.00000 107.70000 0.85243 0.14757
0.00000 1078.00000 107.80000 0.85233 0.14767
0.00000 1079.00000 107.90000 0.85224 0.14776
0.00000 1080.00000 108.00000 0.85212 0.14788
0.00000 1081.00000 108.10000 0.85202 0.14798
0.00000 1082.00000 108.20000 0.85190 0.14810
0.00000 1083.00000 108.30000 0.85180 0.14820
0.00000 1084.00000 108.40000 0.85167 0.14833
0.00000 1085.00000 108.50000 0.85155 0.14845
0.00000 1086.00000 108.60000 0.85142 0.14858
0.00000 1087.00000 108.70000 0.85130 0.14870
0.00000 1088.00000 108.80000 0.85117 0.14883
0.00000 1089.00000 108.90000 0.85104 0.14896
0.00000 1090.00000 109.00000 0.85091 0.14909
0.00000 1091.00000 109.10000 0.85078 0.14922
0.00000 1092.00000 109.20000 0.85065 0.14935
0.00000 1093.00000 109.30000 0.85053 0.14947
0.00000 1094.00000 109.40000 0.85040 0.14960
0.00000 1095.00000 109.50000 0.85028 0.14972
0.00000 1096.00000 109.60000 0.85016 0.14984
0.00000 1097.00000 109.70000 0.85005 0.14995
0.00000 1098.00000 109.80000 0.84993 0.15007
0.00000 1099.00000 109.90000 0.84983 0.15017
0.00000 1100.00000 110.00000 0.84973 0.15027
0.00000 1101.00000 110.10000 0.84964 0.15036
0.00000 1102.00000 110.20000 0.84955 0.15045
0.00000 1103.00000 110.30000 0.84948 0.15052
0.00000 1104.00000 110.40000 0.84940 0.15060
0.00000 1105.00000 110.50000 0.84934 0.15066
0.00000 1106.00000 110.60000 0.84929 0.15071
0.00000 1107.00000 110.70000 0.84925 0.15075
0.00000 1108.00000 110.80000 0.84922 0.15078
0.00000 1109.00000 110.90000 0.84920 0.15080
0.00000 1110.00000 111.00000 0.84918 0.15082
0.00000 1111.00000 111.10000 0.84918 0.15082
0.00000 1112.00000 111.20000 0.84919 0.15081
0.00000 1113.00000 111.30000 0.84921 0.15079
0.00000 1114.00000 111.40000 0.84924 0.15076
0.00000 1115.00000 111.50000 0.84928 0.15072
0.00000 1116.00000 111.60000 0.84934 0.15066
0.00000 1117.00000 111.70000 0.84940 0.15060
0.00000 1118.00000 111.80000 0.84948 0.15052
0.00000 1119.00000 111.90000 0.84956 0.15044
0.00000 1120.00000 112.00000 0.84966 0.15034
0.00000 1121.00000 112.10000 0.84976 0.15024
0.00000 1122.00000 112.20000 0.84988 0.15012
0.00000 1123.00000 112.30000 0.84999 0.15001
0.00000 1124.00000 112.40000 0.85013 0.14987
0.00000 1125.00000 112.50000 0.85026 0.14974
0.00000 1126.00000 112.60000 0.85041 0.14959
0.00000 1127.00000 112.70000 0.85055 0.14945
0.00000 1128.00000 112.80000 0.85071 0.14929
0.00000 1129.00000 112.90000 0.85086 0.14914
0.00000 1130.00000 113.00000 0.85103 0.14897
0.00000 1131.00000 113.10000 0.85118 0.14882
0.00000 1132.00000 113.20000 0.85135 0.14865
0.00000 1133.00000 113.30000 0.85151 0.14849
0.00000 1134.00000 113.40000 0.85168 0.14832
0.00000 1135.00000 113.50000 0.85183 0.14817
0.00000 1136.00000 113.60000 0.85199 0.14801
0.00000 1137.00000 113.70000 0.85213 0.14787
0.00000 1138.00000 113.80000 0.85228 0.14772
0.00000 1139.00000 113.90000 0.85240 0.14760
0.00000 1140.00000 114.00000 0.85253 0.14747
0.00000 1141.00000 114.10000 0.85264 0.14736
0.00000 1142.00000 114.20000 0.85274 0.14726
0.00000 1143.00000 114.30000 0.85282 0.14718
0.00000 1144.00000 114.40000 0.85290 0.14710
0.00000 1145.00000 114.50000 0.85295 0.14705
0.00000 1146.00000 114.60000 0.85299 0.14701
0.00000 1147.00000 114.70000 0.85299 0.14701
0.00000 1148.00000 114.80000 0.85299 0.14701
0.00000 1149.00000 114.90000 0.85296 0.14704
0.00000 1150.00000 115.00000 0.85291 0.14709
0.00000 1151.00000 115.10000 0.85282 0.14718
0.00000 1152.00000 115.20000 0.85272 0.14728
0.00000 1153.00000 115.30000 0.85258 0.14742
0.00000 1154.00000 115.40000 0.85242 0.14758
0.00000 1155.00000 115.50000 0.85222 0.14778
0.00000 1156.00000 115.60000 0.85200 0.14800
0.00000 1157.00000 115.70000 0.85174 0.14826
0.00000 1158.00000 115.80000 0.85145 0.14855
0.00000 1159.00000 115.90000 0.85112 0.14888
0.00000 1160.00000 116.00000 0.85076 0.14924
0.00000 1161.00000 116.10000 0.85036 0.14964
0.00000 1162.00000 116.20000 0.84993 0.15007
0.00000 1163.00000 116.30000 0.84946 0.15054
0.00000 1164.00000 116.40000 0.84895 0.15105
0.00000 1165.00000 116.50000 0.84841 0.15159
0.00000 1166.00000 116.60000 0.84782 0.15218
0.00000 1167.00000 116.70000 0.84720 0.15280
0.00000 1168.00000 116.80000 0.84654 0.15346
0.00000 1169.00000 116.90000 0.84585 0.15415
0.00000 1170.00000 117.00000 0.84511 0.15489
0.00000 1171.00000 117.10000 0.84435 0.15565
0.00000 1172.00000 117.20000 0.84353 0.15647
0.00000 1173.00000 117.30000 0.84269 0.15731
0.00000 1174.00000 117.40000 0.84181 0.15819
0.00000 1175.00000 117.50000 0.84090 0.15910
0.00000 1176.00000 117.60000 0.83995 0.16005
0.00000 1177.00000 117.70000 0.83898 0.16102
0.00000 1178.00000 117.80000 0.83796 0.16204
0.00000 1179.00000 117.90000 0.83692 0.16308
0.00000 1180.00000 118.00000 0.83585 0.16415
0.00000 1181.00000 118.10000 0.83475 0.16525
0.00000 1182.00000 118.20000 0.83362 0.16638
0.00000 1183.00000 118.30000 0.83248 0.16752
0.00000 1184.00000 118.40000 0.83130 0.16870
0.00000 1185.00000 118.50000 0.83012 0.16988
0.00000 1186.00000 118.60000 0.82890 0.17110
0.00000 1187.00000 118.70000 0.82768 0.17232
0.00000 1188.00000 118.80000 0.82643 0.17357
0.00000 1189.00000 118.90000 0.82518 0.17482
0.00000 1190.00000 119.00000 0.82390 0.17610
0.00000 1191.00000 119.10000 0.82263 0.17737
0.00000 1192.00000 119.20000 0.82134 0.17866
0.00000 1193.00000 119.30000 0.82006 0.17994
0.00000 1194.00000 119.40000 0.81876 0.18124
0.00000 1195.00000 119.50000 0.81748 0.18252
0.00000 1196.00000 119.60000 0.81618 0.18382
0.00000 1197.00000 119.70000 0.81490 0.18510
0.00000 1198.00000 119.80000 0.81362 0.18638
0.00000 1199.00000 119.90000 0.81235 0.18765
0.00000 1200.00000 120.00000 0.81108 0.18892
0.00000 1201.00000 120.10000 0.80984 0.19016
0.00000 1202.00000 120.20000 0.80860 0.19140
0.00000 1203.00000 120.30000 0.80739 0.19261
0.00000 1204.00000 120.40000 0.80619 0.19381
0.00000 1205.00000 120.50000 0.80502 0.19498
0.00000 1206.00000 120.60000 0.80386 0.19614
0.00000 1207.00000 120.70000 0.80273 0.19727
0.00000 1208.00000 120.80000 0.80162 0.19838
0.00000 1209.00000 120.90000 0.80055 0.19945
0.00000 1210.00000 121.00000 0.79950 0.20050
0.00000 1211.00000 121.10000 0.79848 0.20152
0.00000 1212.00000 121.20000 0.79749 0.20251
0.00000 1213.00000 121.30000 0.79654 0.20346
0.00000 1214.00000 121.40000 0.79562 0.20438
0.00000 1215.00000 121.50000 0.79474 0.20526
0.00000 1216.00000 121.60000 0.79389 0.20611
0.00000 1217.00000 121.70000 0.79307 0.20693
0.00000 1218.00000 121.80000 0.79230 0.20770
0.00000 1219.00000 121.90000 0.79156 0.20844
0.00000 1220.00000 122.00000 0.79086 0.20914
0.00000 1221.00000 122.10000 0.79020 0.20980
0.00000 1222.00000 122.20000 0.78957 0.21043
0.00000 1223.00000 122.30000 0.78899 0.21101
0.00000 1224.00000 122.40000 0.78844 0.21156
0.00000 1225.00000 122.50000 0.78793 0.21207
0.00000 1226.00000 122.60000 0.78747 0.21253
0.00000 1227.00000 122.70000 0.78703 0.21297
0.00000 1228.00000 122.80000 0.78664 0.21336
0.00000 1229.00000 122.90000 0.78627 0.21373
0.00000 1230.00000 123.00000 0.78595 0.21405
0.00000 1231.00000 123.10000 0.78566 0.21434
0.00000 1232.00000 123.20000 0.78541 0.21459
0.00000 1233.00000 123.30000 0.78518 0.21482
0.00000 1234.00000 123.40000 0.78499 0.21501
0.00000 1235.00000 123.50000 0.78482 0.21518
0.00000 1236.00000 123.60000 0.78469 0.21531
0.00000 1237.00000 123.70000 0.78458 0.21542
0.00000 1238.00000 123.80000 0.78451 0.21549
0.00000 1239.00000 123.90000 0.78445 0.21555
0.00000 1240.00000 124.00000 0.78442 0.21558
0.00000 1241.00000 124.10000 0.78440 0.21560
0.00000 1242.00000 124.20000 0.78442 0.21558
0.00000 1243.00000 124.30000 0.78444 0.21556
0.00000 1244.00000 124.40000 0.78449 0.21551
0.00000 1245.00000 124.50000 0.78454 0.21546
0.00000 1246.00000 124.60000 0.78461 0.21539
0.00000 1247.00000 124.70000 0.78469 0.21531
0.00000 1248.00000 124.80000 0.78479 0.21521
0.00000 1249.00000 124.90000 0.78488 0.21512
0.00000 1250.00000 125.00000 0.78499 0.21501
0.00000 1251.00000 125.10000 0.78509 0.21491
0.00000 1252.00000 125.20000 0.78521 0.21479
0.00000 1253.00000 125.30000 0.78531 0.21469
0.00000 1254.00000 125.40000 0.78543 0.21457
0.00000 1255.00000 125.50000 0.78553 0.21447
0.00000 1256.00000 125.60000 0.78564 0.21436
0.00000 1257.00000 125.70000 0.78573 0.21427
0.00000 1258.00000 125.80000 0.78582 0.21418
0.00000 1259.00000 125.90000 0.78589 0.21411
0.00000 1260.00000 126.00000 0.78597 0.21403
0.00000 1261.00000 126.10000 0.78602 0.21398
0.00000 1262.00000 126.20000 0.78607 0.21393
0.00000 1263.00000 126.30000 0.78610 0.21390
0.00000 1264.00000 126.40000 0.78612 0.21388
0.00000 1265.00000 126.50000 0.78612 0.21388
0.00000 1266.00000 126.60000 0.78610 0.21390
0.00000 1267.00000 126.70000 0.78607 0.21393
0.00000 1268.00000 126.80000 0.78602 0.21398
0.00000 1269.00000 126.90000 0.78594 0.21406
0.00000 1270.00000 127.00000 0.78585 0.21415
0.00000 1271.00000 127.10000 0.78573 0.21427
0.00000 1272.00000 127.20000 0.78560 0.21440
0.00000 1273.00000 127.30000 0.78545 0.21455
0.00000 1274.00000 127.40000 0.78527 0.21473
0.00000 1275.00000 127.50000 0.78507 0.21493
0.00000 1276.00000 127.60000 0.78485 0.21515
0.00000 1277.00000 127.70000 0.78461 0.21539
0.00000 1278.00000 127.80000 0.78434 0.21566
0.00000 1279.00000 127.90000 0.78406 0.21594
0.00000 1280.00000 128.00000 0.78374 0.21626
0.00000 1281.00000 128.10000 0.78342 0.21658
0.00000 1282.00000 128.20000 0.78307 0.21693
0.00000 1283.00000 128.30000 0.78270 0.21730
0.00000 1284.00000 128.40000 0.78231 0.21769
0.00000 1285.00000 128.50000 0.78191 0.21809
0.00000 1286.00000 128.60000 0.78147 0.21853
0.00000 1287.00000 128.70000 0.78104 0.21896
0.00000 1288.00000 128.80000 0.78057 0.21943
0.00000 1289.00000 128.90000 0.78010 0.21990
0.00000 1290.00000 129.00000 0.77960 0.22040
0.00000 1291.00000 129.10000 0.77911 0.22089
0.00000 1292.00000 129.20000 0.77858 0.22142
0.00000 1293.00000 129.30000 0.77806 0.22194
0.00000 1294.00000 129.40000 0.77751 0.22249
0.00000 1295.00000 129.50000 0.77697 0.22303
0.00000 1296.00000 129.60000 0.77641 0.22359
0.00000 1297.00000 129.70000 0.77585 0.22415
0.00000 1298.00000 129.80000 0.77527 0.22473
0.00000 1299.00000 129.90000 0.77470 0.22530
0.00000 1300.00000 130.00000 0.77412 0.22588
0.00000 1301.00000 130.10000 0.77355 0.22645
0.00000 1302.00000 130.20000 0.77296 0.22704
0.00000 1303.00000 130.30000 0.77238 0.22762
0.00000 1304.00000 130.40000 0.77180 0.22820
0.00000 1305.00000 130.50000 0.77123 0.22877
0.00000 1306.00000 130.60000 0.77065 0.22935
0.00000 1307.00000 130.70000 0.77008 0.22992
0.00000 1308.00000 130.80000 0.76952 0.23048
0.00000 1309.00000 130.90000 0.76897 0.23103
0.00000 1310.00000 131.00000 0.76842 0.23158
0.00000 1311.00000 131.10000 0.76789 0.23211
0.00000 1312.00000 131.20000 0.76736 0.23264
0.00000 1313.00000 131.30000 0.76685 0.23315
0.00000 1314.00000 131.40000 0.76634 0.23366
0.00000 1315.00000 131.50000 0.76585 0.23415
0.00000 1316.00000 131.60000 0.76538 0.23462
0.00000 1317.00000 131.70000 0.76492 0.23508
0.00000 1318.00000 131.80000 0.76448 0.23552
0.00000 1319.00000 131.90000 0.76405 0.23595
0.00000 1320.00000 132.00000 0.76364 0.23636
0.00000 1321.00000 132.10000 0.76324 0.23676
0.00000 1322.00000 132.20000 0.76287 0.23713
0.00000 1323.00000 132.30000 0.76251 0.23749
0.00000 1324.00000 132.40000 0.76217 0.23783
0.00000 1325.00000 132.50000 0.76185 0.23815
0.00000 1326.00000 132.60000 0.76155 0.23845
0.00000 1327.00000 132.70000 0.76126 0.23874
0.00000 1328.00000 132.80000 0.76100 0.23900
0.00000 1329.00000 132.90000 0.76075 0.23925
0.00000 1330.00000 133.00000 0.76053 0.23947
0.00000 1331.00000 133.10000 0.76031 0.23969
0.00000 1332.00000 133.20000 0.76013 0.23987
0.00000 1333.00000 133.30000 0.75995 0.24005
0.00000 1334.00000 133.40000 0.75979 0.24021
0.00000 1335.00000 133.50000 0.75965 0.24035
0.00000 1336.00000 133.60000 0.75953 0.24047
0.00000 1337.00000 133.70000 0.75941 0.24059
0.00000 1338.00000 133.80000 0.75932 0.24068
0.00000 1339.00000 133.90000 0.75924 0.24076
0.00000 1340.00000 134.00000 0.75917 0.24083
0.00000 1341.00000 134.10000 0.75911 0.24089
0.00000 1342.00000 134.20000 0.75907 0.24093
0.00000 1343.00000 134.30000 0.75903 0.24097
0.00000 1344.00000 134.40000 0.75901 0.24099
0.00000 1345.00000 134.50000 0.75898 0.24102
0.00000 1346.00000 134.60000 0.75897 0.24103
0.00000 1347.00000 134.70000 0.75896 0.24104
0.00000 1348.00000 134.80000 0.75896 0.24104
0.00000 1349.00000 134.90000 0.75895 0.24105
0.00000 1350.00000 135.00000 0.75896 0.24104
0.00000 1351.00000 135.10000 0.75895 0.24105
0.00000 1352.00000 135.20000 0.75896 0.24104
0.00000 1353.00000 135.30000 0.75895 0.24105
0.00000 1354.00000 135.40000 0.75895 0.24105
0.00000 1355.00000 135.50000 0.75893 0.24107
0.00000 1356.00000 135.60000 0.75891 0.24109
0.00000 1357.00000 135.70000 0.75888 0.24112
0.00000 1358.00000 135.80000 0.75885 0.24115
0.00000 1359.00000 135.90000 0.75880 0.24120
0.00000 1360.00000 136.00000 0.75874 0.24126
0.00000 1361.00000 136.10000 0.75867 0.24133
0.00000 1362.00000 136.20000 0.75858 0.24142
0.00000 1363.00000 136.30000 0.75847 0.24153
0.00000 1364.00000 136.40000 0.75836 0.24164
0.00000 1365.00000 136.50000 0.75822 0.24178
0.00000 1366.00000 136.60000 0.75806 0.24194
0.00000 1367.00000 136.70000 0.75788 0.24212
0.00000 1368.00000 136.80000 0.75768 0.24232
0.00000 1369.00000 136.90000 0.75746 0.24254
0.00000 1370.00000 137.00000 0.75722 0.24278
0.00000 1371.00000 137.10000 0.75695 0.24305
0.00000 1372.00000 137.20000 0.75666 0.24334
0.00000 1373.00000 137.30000 0.75634 0.24366
0.00000 1374.00000 137.40000 0.75600 0.24400
0.00000 1375.00000 137.50000 0.75563 0.24437
0.00000 1376.00000 137.60000 0.75523 0.24477
0.00000 1377.00000 137.70000 0.75481 0.24519
0.00000 1378.00000 137.80000 0.75436 0.24564
0.00000 1379.00000 137.90000 0.75388 0.24612
0.00000 1380.00000 138.00000 0.75337 0.24663
0.00000 1381.00000 138.10000 0.75285 0.24715
0.00000 1382.00000 138.20000 0.75228 0.24772
0.00000 1383.00000 138.30000 0.75170 0.24830
0.00000 1384.00000 138.40000 0.75108 0.24892
0.00000 1385.00000 138.50000 0.75044 0.24956
0.00000 1386.00000 138.60000 0.74977 0.25023
0.00000 1387.00000 138.70000 0.74908 0.25092
0.00000 1388.00000 138.80000 0.74835 0.25165
0.00000 1389.00000 138.90000 0.74762 0.25238
0.00000 1390.00000 139.00000 0.74684 0.25316
0.00000 1391.00000 139.10000 0.74606 0.25394
0.00000 1392.00000 139.20000 0.74523 0.25477
0.00000 1393.00000 139.30000 0.74441 0.25559
0.00000 1394.00000 139.40000 0.74354 0.25646
0.00000 1395.00000 139.50000 0.74268 0.25732
0.00000 1396.00000 139.60000 0.74178 0.25822
0.00000 1397.00000 139.70000 0.74087 0.25913
0.00000 1398.00000 139.80000 0.73994 0.26006
0.00000 1399.00000 139.90000 0.73901 0.26099
0.00000 1400.00000 140.00000 0.73805 0.26195
0.00000 1401.00000 140.10000 0.73709 0.26291
0.00000 1402.00000 140.20000 0.73610 0.26390
0.00000 1403.00000 140.30000 0.73512 0.26488
0.00000 1404.00000 140.40000 0.73412 0.26588
0.00000 1405.00000 140.50000 0.73313 0.26687
0.00000 1406.00000 140.60000 0.73212 0.26788
0.00000 1407.00000 140.70000 0.73112 0.26888
0.00000 1408.00000 140.80000 0.73010 0.26990
0.00000 1409.00000 140.90000 0.72910 0.27090
0.00000 1410.00000 141.00000 0.72808 0.27192
0.00000 1411.00000 141.10000 0.72708 0.27292
0.00000 1412.00000 141.20000 0.72608 0.27392
0.00000 1413.00000 141.30000 0.72508 0.27492
0.00000 1414.00000 141.40000 0.72409 0.27591
0.00000 1415.00000 141.50000 0.72311 0.27689
0.00000 1416.00000 141.60000 0.72214 0.27786
0.00000 1417.00000 141.70000 0.72118 0.27882
0.00000 1418.00000 141.80000 0.72023 0.27977
0.00000 1419.00000 141.90000 0.71930 0.28070
0.00000 1420.00000 142.00000 0.71838 0.28162
0.00000 1421.00000 142.10000 0.71747 0.28253
0.00000 1422.00000 142.20000 0.71659 0.28341
0.00000 1423.00000 142.30000 0.71572 0.28428
0.00000 1424.00000 142.40000 0.71487 0.28513
0.00000 1425.00000 142.50000 0.71404 0.28596
0.00000 1426.00000 142.60000 0.71323 0.28677
0.00000 1427.00000 142.70000 0.71244 0.28756
0.00000 1428.00000 142.80000 0.71168 0.28832
0.00000 1429.00000 142.90000 0.71094 0.28906
0.00000 1430.00000 143.00000 0.71023 0.28977
0.00000 1431.00000 143.10000 0.70953 0.29047
0.00000 1432.00000 143.20000 0.70887 0.29113
0.00000 1433.00000 143.30000 0.70823 0.29177
0.00000 1434.00000 143.40000 0.70762 0.29238
0.00000 1435.00000 143.50000 0.70702 0.29298
0.00000 1436.00000 143.60000 0.70647 0.29353
0.00000 1437.00000 143.70000 0.70593 0.29407
0.00000 1438.00000 143.80000 0.70543 0.29457
0.00000 1439.00000 143.90000 0.70494 0.29506
0.00000 1440.00000 144.00000 0.70449 0.29551
0.00000 1441.00000 144.10000 0.70406 0.29594
0.00000 1442.00000 144.20000 0.70366 0.29634
0.00000 1443.00000 144.30000 0.70328 0.29672
0.00000 1444.00000 144.40000 0.70294 0.29706
0.00000 1445.00000 144.50000 0.70262 0.29738
0.00000 1446.00000 144.60000 0.70233 0.29767
0.00000 1447.00000 144.70000 0.70205 0.29795
0.00000 1448.00000 144.80000 0.70182 0.29818
0.00000 1449.00000 144.90000 0.70159 0.29841
0.00000 1450.00000 145.00000 0.70140 0.29860
0.00000 1451.00000 145.10000 0.70123 0.29877
0.00000 1452.00000 145.20000 0.70108 0.29892
0.00000 1453.00000 145.30000 0.70095 0.29905
0.00000 1454.00000 145.40000 0.70086 0.29914
0.00000 1455.00000 145.50000 0.70077 0.29923
0.00000 1456.00000 145.60000 0.70072 0.29928
0.00000 1457.00000 145.70000 0.70067 0.29933
0.00000 1458.00000 145.80000 0.70066 0.29934
0.00000 1459.00000 145.90000 0.70065 0.29935
0.00000 1460.00000 146.00000 0.70067 0.29933
0.00000 1461.00000 146.10000 0.70071 0.29929
0.00000 1462.00000 146.20000 0.70076 0.29924
0.00000 1463.00000 146.30000 0.70083 0.29917
0.00000 1464.00000 146.40000 0.70091 0.29909
0.00000 1465.00000 146.50000 0.70101 0.29899
0.00000 1466.00000 146.60000 0.70113 0.29887
0.00000 1467.00000 146.70000 0.70126 0.29874
0.00000 1468.00000 146.80000 0.70140 0.29860
0.00000 1469.00000 146.90000 0.70156 0.29844
0.00000 1470.00000 147.00000 0.70172 0.29828
0.00000 1471.00000 147.10000 0.70190 0.29810
0.00000 1472.00000 147.20000 0.70209 0.29791
0.00000 1473.00000 147.30000 0.70230 0.29770
0.00000 1474.00000 147.40000 0.70250 0.29750
0.00000 1475.00000 147.50000 0.70273 0.29727
0.00000 1476.00000 147.60000 0.70295 0.29705
0.00000 1477.00000 147.70000 0.70320 0.29680
0.00000 1478.00000 147.80000 0.70344 0.29656
0.00000 1479.00000 147.90000 0.70371 0.29629
0.00000 1480.00000 148.00000 0.70397 0.29603
0.00000 1481.00000 148.10000 0.70425 0.29575
0.00000 1482.00000 148.20000 0.70452 0.29548
0.00000 1483.00000 148.30000 0.70482 0.29518
0.00000 1484.00000 148.40000 0.70510 0.29490
0.00000 1485.00000 148.50000 0.70542 0.29458
0.00000 1486.00000 148.60000 0.70572 0.29428
0.00000 1487.00000 148.70000 0.70604 0.29396
0.00000 1488.00000 148.80000 0.70636 0.29364
0.00000 1489.00000 148.90000 0.70670 0.29330
0.00000 1490.00000 149.00000 0.70703 0.29297
0.00000 1491.00000 149.10000 0.70739 0.29261
0.00000 1492.00000 149.20000 0.70773 0.29227
0.00000 1493.00000 149.30000 0.70810 0.29190
0.00000 1494.00000 149.40000 0.70846 0.29154
0.00000 1495.00000 149.50000 0.70884 0.29116
0.00000 1496.00000 149.60000 0.70922 0.29078
0.00000 1497.00000 149.70000 0.70961 0.29039
0.00000 1498.00000 149.80000 0.71001 0.28999
0.00000 1499.00000 149.90000 0.71042 0.28958
0.00000 1500.00000 150.00000 0.71083 0.28917
0.00000 1501.00000 150.10000 0.71125 0.28875
0.00000 1502.00000 150.20000 0.71168 0.28832
0.00000 1503.00000 150.30000 0.71212 0.28788
0.00000 1504.00000 150.40000 0.71257 0.28743
0.00000 1505.00000 150.50000 0.71303 0.28697
0.00000 1506.00000 150.60000 0.71349 0.28651
0.00000 1507.00000 150.70000 0.71397 0.28603
0.00000 1508.00000 150.80000 0.71445 0.28555
0.00000 1509.00000 150.90000 0.71495 0.28505
0.00000 1510.00000 151.00000 0.71545 0.28455
0.00000 1511.00000 151.10000 0.71596 0.28404
0.00000 1512.00000 151.20000 0.71648 0.28352
0.00000 1513.00000 151.30000 0.71702 0.28298
0.00000 1514.00000 151.40000 0.71756 0.28244
0.00000 1515.00000 151.50000 0.71811 0.28189
0.00000 1516.00000 151.60000 0.71867 0.28133
0.00000 1517.00000 151.70000 0.71923 0.28077
0.00000 1518.00000 151.80000 0.71981 0.28019
0.00000 1519.00000 151.90000 0.72040 0.27960
0.00000 1520.00000 152.00000 0.72099 0.27901
0.00000 1521.00000 152.10000 0.72159 0.27841
0.00000 1522.00000 152.20000 0.72221 0.27779
0.00000 1523.00000 152.30000 0.72282 0.27718
0.00000 1524.00000 152.40000 0.72345 0.27655
0.00000 1525.00000 152.50000 0.72407 0.27593
0.00000 1526.00000 152.60000 0.72472 0.27528
0.00000 1527.00000 152.70000 0.72535 0.27465
0.00000 1528.00000 152.80000 0.72601 0.27399
0.00000 1529.00000 152.90000 0.72665 0.27335
0.00000 1530.00000 153.00000 0.72731 0.27269
0.00000 1531.00000 153.10000 0.72796 0.27204
0.00000 1532.00000 153.20000 0.72863 0.27137
0.00000 1533.00000 153.30000 0.72928 0.27072
0.00000 1534.00000 153.40000 0.72995 0.27005
0.00000 1535.00000 153.50000 0.73060 0.26940
0.00000 1536.00000 153.60000 0.73126 0.26874
0.00000 1537.00000 153.70000 0.73191 0.26809
0.00000 1538.00000 153.80000 0.73256 0.26744
0.00000 1539.00000 153.90000 0.73320 0.26680
0.00000 1540.00000 154.00000 0.73385 0.26615
0.00000 1541.00000 154.10000 0.73447 0.26553
0.00000 1542.00000 154.20000 0.73510 0.26490
0.00000 1543.00000 154.30000 0.73570 0.26430
0.00000 1544.00000 154.40000 0.73631 0.26369
0.00000 1545.00000 154.50000 0.73689 0.26311
0.00000 1546.00000 154.60000 0.73748 0.26252
0.00000 1547.00000 154.70000 0.73803 0.26197
0.00000 1548.00000 154.80000 0.73858 0.26142
0.00000 1549.00000 154.90000 0.73910 0.26090
0.00000 1550.00000 155.00000 0.73962 0.26038
0.00000 1551.00000 155.10000 0.74010 0.25990
0.00000 1552.00000 155.20000 0.74058 0.25942
0.00000 1553.00000 155.30000 0.74102 0.25898
0.00000 1554.00000 155.40000 0.74145 0.25855
0.00000 1555.00000 155.50000 0.74184 0.25816
0.00000 1556.00000 155.60000 0.74222 0.25778
0.00000 1557.00000 155.70000 0.74256 0.25744
0.00000 1558.00000 155.80000 0.74288 0.25712
0.00000 1559.00000 155.90000 0.74317 0.25683
0.00000 1560.00000 156.00000 0.74343 0.25657
0.00000 1561.00000 156.10000 0.74366 0.25634
0.00000 1562.00000 156.20000 0.74386 0.25614
0.00000 1563.00000 156.30000 0.74403 0.25597
0.00000 1564.00000 156.40000 0.74416 0.25584
0.00000 1565.00000 156.50000 0.74426 0.25574
0.00000 1566.00000 156.60000 0.74433 0.25567
0.00000 1567.00000 156.70000 0.74436 0.25564
0.00000 1568.00000 156.80000 0.74436 0.25564
0.00000 1569.00000 156.90000 0.74432 0.25568
0.00000 1570.00000 157.00000 0.74425 0.25575
0.00000 1571.00000 157.10000 0.74414 0.25586
0.00000 1572.00000 157.20000 0.74399 0.25601
0.00000 1573.00000 157.30000 0.74382 0.25618
0.00000 1574.00000 157.40000 0.74360 0.25640
0.00000 1575.00000 157.50000 0.74335 0.25665
0.00000 1576.00000 157.60000 0.74306 0.25694
0.00000 1577.00000 157.70000 0.74275 0.25725
0.00000 1578.00000 157.80000 0.74239 0.25761
0.00000 1579.00000 157.90000 0.74202 0.25798
0.00000 1580.00000 158.00000 0.74159 0.25841
0.00000 1581.00000 158.10000 0.74115 0.25885
0.00000 1582.00000 158.20000 0.74067 0.25933
0.00000 1583.00000 158.30000 0.74017 0.25983
0.00000 1584.00000 158.40000 0.73962 0.26038
0.00000 1585.00000 158.50000 0.73907 0.26093
0.00000 1586.00000 158.60000 0.73847 0.26153
0.00000 1587.00000 158.70000 0.73787 0.26213
0.00000 1588.00000 158.80000 0.73722 0.26278
0.00000 1589.00000 158.90000 0.73657 0.26343
0.00000 1590.00000 159.00000 0.73589 0.26411
0.00000 1591.00000 159.10000 0.73520 0.26480
0.00000 1592.00000 159.20000 0.73448 0.26552
0.00000 1593.00000 159.30000 0.73376 0.26624
0.00000 1594.00000 159.40000 0.73302 0.26698
0.00000 1595.00000 159.50000 0.73227 0.26773
0.00000 1596.00000 159.60000 0.73150 0.26850
0.00000 1597.00000 159.70000 0.73074 0.26926
0.00000 1598.00000 159.80000 0.72996 0.27004
0.00000 1599.00000 159.90000 0.72919 0.27081
0.00000 1600.00000 160.00000 0.72841 0.27159
0.00000 1601.00000 160.10000 0.72763 0.27237
0.00000 1602.00000 160.20000 0.72685 0.27315
0.00000 1603.00000 160.30000 0.72608 0.27392
0.00000 1604.00000 160.40000 0.72531 0.27469
0.00000 1605.00000 160.50000 0.72455 0.27545
0.00000 1606.00000 160.60000 0.72380 0.27620
0.00000 1607.00000 160.70000 0.72306 0.27694
0.00000 1608.00000 160.80000 0.72233 0.27767
0.00000 1609.00000 160.90000 0.72162 0.27838
0.00000 1610.00000 161.00000 0.72091 0.27909
0.00000 1611.00000 161.10000 0.72024 0.27976
0.00000 1612.00000 161.20000 0.71957 0.28043
0.00000 1613.00000 161.30000 0.71893 0.28107
0.00000 1614.00000 161.40000 0.71830 0.28170
0.00000 1615.00000 161.50000 0.71770 0.28230
0.00000 1616.00000 161.60000 0.71713 0.28287
0.00000 1617.00000 161.70000 0.71657 0.28343
0.00000 1618.00000 161.80000 0.71604 0.28396
0.00000 1619.00000 161.90000 0.71554 0.28446
0.00000 1620.00000 162.00000 0.71507 0.28493
0.00000 1621.00000 162.10000 0.71462 0.28538
0.00000 1622.00000 162.20000 0.71419 0.28581
0.00000 1623.00000 162.30000 0.71380 0.28620
0.00000 1624.00000 162.40000 0.71343 0.28657
0.00000 1625.00000 162.50000 0.71309 0.28691
0.00000 1626.00000 162.60000 0.71278 0.28722
0.00000 1627.00000 162.70000 0.71250 0.28750
0.00000 1628.00000 162.80000 0.71224 0.28776
0.00000 1629.00000 162.90000 0.71201 0.28799
0.00000 1630.00000 163.00000 0.71181 0.28819
0.00000 1631.00000 163.10000 0.71163 0.28837
0.00000 1632.00000 163.20000 0.71148 0.28852
0.00000 1633.00000 163.30000 0.71135 0.28865
0.00000 1634.00000 163.40000 0.71125 0.28875
0.00000 1635.00000 163.50000 0.71116 0.28884
0.00000 1636.00000 163.60000 0.71111 0.28889
0.00000 1637.00000 163.70000 0.71106 0.28894
0.00000 1638.00000 163.80000 0.71105 0.28895
0.00000 1639.00000 163.90000 0.71104 0.28896
0.00000 1640.00000 164.00000 0.71106 0.28894
0.00000 1641.00000 164.10000 0.71109 0.28891
0.00000 1642.00000 164.20000 0.71114 0.28886
0.00000 1643.00000 164.30000 0.71119 0.28881
0.00000 1644.00000 164.40000 0.71126 0.28874
0.00000 1645.00000 164.50000 0.71134 0.28866
0.00000 1646.00000 164.60000 0.71143 0.28857
0.00000 1647.00000 164.70000 0.71152 0.28848
0.00000 1648.00000 164.80000 0.71162 0.28838
0.00000 1649.00000 164.90000 0.71172 0.28828
0.00000 1650.00000 165.00000 0.71182 0.28818
0.00000 1651.00000 165.10000 0.71192 0.28808
0.00000 1652.00000 165.20000 0.71203 0.28797
0.00000 1653.00000 165.30000 0.71212 0.28788
0.00000 1654.00000 165.40000 0.71222 0.28778
0.00000 1655.00000 165.50000 0.71231 0.28769
0.00000 1656.00000 165.60000 0.71239 0.28761
0.00000 1657.00000 165.70000 0.71246 0.28754
0.00000 1658.00000 165.80000 0.71253 0.28747
0.00000 1659.00000 165.90000 0.71258 0.28742
0.00000 1660.00000 166.00000 0.71262 0.28738
0.00000 1661.00000 166.10000 0.71264 0.28736
0.00000 1662.00000 166.20000 0.71266 0.28734
0.00000 1663.00000 166.30000 0.71265 0.28735
0.00000 1664.00000 166.40000 0.71263 0.28737
0.00000 1665.00000 166.50000 0.71259 0.28741
0.00000 1666.00000 166.60000 0.71254 0.28746
0.00000 1667.00000 166.70000 0.71246 0.28754
0.00000 1668.00000 166.80000 0.71236 0.28764
0.00000 1669.00000 166.90000 0.71225 0.28775
0.00000 1670.00000 167.00000 0.71211 0.28789
0.00000 1671.00000 167.10000 0.71195 0.28805
0.00000 1672.00000 167.20000 0.71178 0.28822
0.00000 1673.00000 167.30000 0.71158 0.28842
0.00000 1674.00000 167.40000 0.71136 0.28864
0.00000 1675.00000 167.50000 0.71111 0.28889
0.00000 1676.00000 167.60000 0.71085 0.28915
0.00000 1677.00000 167.70000 0.71056 0.28944
0.00000 1678.00000 167.80000 0.71026 0.28974
0.00000 1679.00000 167.90000 0.70993 0.29007
0.00000 1680.00000 168.00000 0.70958 0.29042
0.00000 1681.00000 168.10000 0.70922 0.29078
0.00000 1682.00000 168.20000 0.70883 0.29117
0.00000 1683.00000 168.30000 0.70843 0.29157
0.00000 1684.00000 168.40000 0.70801 0.29199
0.00000 1685.00000 168.50000 0.70758 0.29242
0.00000 1686.00000 168.60000 0.70712 0.29288
0.00000 1687.00000 168.70000 0.70665 0.29335
0.00000 1688.00000 168.80000 0.70617 0.29383
0.00000 1689.00000 168.90000 0.70568 0.29432
0.00000 1690.00000 169.00000 0.70517 0.29483
0.00000 1691.00000 169.10000 0.70466 0.29534
0.00000 1692.00000 169.20000 0.70412 0.29588
0.00000 1693.00000 169.30000 0.70360 0.29640
0.00000 1694.00000 169.40000 0.70305 0.29695
0.00000 1695.00000 169.50000 0.70251 0.29749
0.00000 1696.00000 169.60000 0.70195 0.29805
0.00000 1697.00000 169.70000 0.70141 0.29859
0.00000 1698.00000 169.80000 0.70085 0.29915
0.00000 1699.00000 169.90000 0.70030 0.29970
0.00000 1700.00000 170.00000 0.69974 0.30026
0.00000 1701.00000 170.10000 0.69920 0.30080
0.00000 1702.00000 170.20000 0.69864 0.30136
0.00000 1703.00000 170.30000 0.69811 0.30189
0.00000 1704.00000 170.40000 0.69757 0.30243
0.00000 1705.00000 170.50000 0.69705 0.30295
0.00000 1706.00000 170.60000 0.69653 0.30347
0.00000 1707.00000 170.70000 0.69603 0.30397
0.00000 1708.00000 170.80000 0.69553 0.30447
0.00000 1709.00000 170.90000 0.69505 0.30495
0.00000 1710.00000 171.00000 0.69458 0.30542
0.00000 1711.00000 171.10000 0.69413 0.30587
0.00000 1712.00000 171.20000 0.69369 0.30631
0.00000 1713.00000 171.30000 0.69328 0.30672
0.00000 1714.00000 171.40000 0.69288 0.30712
0.00000 1715.00000 171.50000 0.69250 0.30750
0.00000 1716.00000 171.60000 0.69214 0.30786
0.00000 1717.00000 171.70000 0.69180 0.30820
0.00000 1718.00000 171.80000 0.69148 0.30852
0.00000 1719.00000 171.90000 0.69119 0.30881
0.00000 1720.00000 172.00000 0.69092 0.30908
0.00000 1721.00000 172.10000 0.69067 0.30933
0.00000 1722.00000 172.20000 0.69045 0.30955
0.00000 1723.00000 172.30000 0.69024 0.30976
0.00000 1724.00000 172.40000 0.69007 0.30993
0.00000 1725.00000 172.50000 0.68992 0.31008
0.00000 1726.00000 172.60000 0.68979 0.31021
0.00000 1727.00000 172.70000 0.68969 0.31031
0.00000 1728.00000 172.80000 0.68961 0.31039
0.00000 1729.00000 172.90000 0.68955 0.31045
0.00000 1730.00000 173.00000 0.68953 0.31047
0.00000 1731.00000 173.10000 0.68952 0.31048
0.00000 1732.00000 173.20000 0.68954 0.31046
0.00000 1733.00000 173.30000 0.68958 0.31042
0.00000 1734.00000 173.40000 0.68965 0.31035
0.00000 1735.00000 173.50000 0.68973 0.31027
0.00000 1736.00000 173.60000 0.68984 0.31016
0.00000 1737.00000 173.70000 0.68996 0.31004
0.00000 1738.00000 173.80000 0.69012 0.30988
0.00000 1739.00000 173.90000 0.69027 0.30973
0.00000 1740.00000 174.00000 0.69046 0.30954
0.00000 1741.00000 174.10000 0.69066 0.30934
0.00000 1742.00000 174.20000 0.69088 0.30912
0.00000 1743.00000 174.30000 0.69110 0.30890
0.00000 1744.00000 174.40000 0.69135 0.30865
0.00000 1745.00000 174.50000 0.69160 0.30840
0.00000 1746.00000 174.60000 0.69187 0.30813
0.00000 1747.00000 174.70000 0.69214 0.30786
0.00000 1748.00000 174.80000 0.69243 0.30757
0.00000 1749.00000 174.90000 0.69271 0.30729
0.00000 1750.00000 175.00000 0.69302 0.30698
0.00000 1751.00000 175.10000 0.69331 0.30669
0.00000 1752.00000 175.20000 0.69361 0.30639
0.00000 1753.00000 175.30000 0.69391 0.30609
0.00000 1754.00000 175.40000 0.69422 0.30578
0.00000 1755.00000 175.50000 0.69451 0.30549
0.00000 1756.00000 175.60000 0.69481 0.30519
0.00000 1757.00000 175.70000 0.69509 0.30491
0.00000 1758.00000 175.80000 0.69538 0.30462
0.00000 1759.00000 175.90000 0.69565 0.30435
0.00000 1760.00000 176.00000 0.69592 0.30408
0.00000 1761.00000 176.10000 0.69617 0.30383
0.00000 1762.00000 176.20000 0.69641 0.30359
0.00000 1763.00000 176.30000 0.69664 0.30336
0.00000 1764.00000 176.40000 0.69685 0.30315
0.00000 1765.00000 176.50000 0.69705 0.30295
0.00000 1766.00000 176.60000 0.69723 0.30277
0.00000 1767.00000 176.70000 0.69739 0.30261
0.00000 1768.00000 176.80000 0.69753 0.30247
0.00000 1769.00000 176.90000 0.69765 0.30235
0.00000 1770.00000 177.00000 0.69775 0.30225
0.00000 1771.00000 177.10000 0.69783 0.30217
0.00000 1772.00000 177.20000 0.69788 0.30212
0.00000 1773.00000 177.30000 0.69791 0.30209
0.00000 1774.00000 177.40000 0.69792 0.30208
0.00000 1775.00000 177.50000 0.69790 0.30210
0.00000 1776.00000 177.60000 0.69786 0.30214
0.00000 1777.00000 177.70000 0.69779 0.30221
0.00000 1778.00000 177.80000 0.69769 0.30231
0.00000 1779.00000 177.90000 0.69758 0.30242
0.00000 1780.00000 178.00000 0.69743 0.30257
0.00000 1781.00000 178.10000 0.69727 0.30273
0.00000 1782.00000 178.20000 0.69707 0.30293
0.00000 1783.00000 178.30000 0.69686 0.30314
0.00000 1784.00000 178.40000 0.69661 0.30339
0.00000 1785.00000 178.50000 0.69636 0.30364
0.00000 1786.00000 178.60000 0.69606 0.30394
0.00000 1787.00000 178.70000 0.69576 0.30424
0.00000 1788.00000 178.80000 0.69543 0.30457
0.00000 1789.00000 178.90000 0.69508 0.30492
0.00000 1790.00000 179.00000 0.69471 0.30529
0.00000 1791.00000 179.10000 0.69433 0.30567
0.00000 1792.00000 179.20000 0.69392 0.30608
0.00000 1793.00000 179.30000 0.69351 0.30649
0.00000 1794.00000 179.40000 0.69308 0.30692
0.00000 1795.00000 179.50000 0.69264 0.30736
0.00000 1796.00000 179.60000 0.69219 0.30781
0.00000 1797.00000 179.70000 0.69173 0.30827
0.00000 1798.00000 179.80000 0.69126 0.30874
0.00000 1799.00000 179.90000 0.69080 0.30920
0.00000 1800.00000 180.00000 0.69032 0.30968
0.00000 1801.00000 180.10000 0.68985 0.31015
0.00000 1802.00000 180.20000 0.68937 0.31063
0.00000 1803.00000 180.30000 0.68890 0.31110
0.00000 1804.00000 180.40000 0.68843 0.31157
0.00000 1805.00000 180.50000 0.68797 0.31203
0.00000 1806.00000 180.60000 0.68752 0.31248
0.00000 1807.00000 180.70000 0.68708 0.31292
0.00000 1808.00000 180.80000 0.68665 0.31335
0.00000 1809.00000 180.90000 0.68624 0.31376
0.00000 1810.00000 181.00000 0.68583 0.31417
0.00000 1811.00000 181.10000 0.68546 0.31454
0.00000 1812.00000 181.20000 0.68509 0.31491
0.00000 1813.00000 181.30000 0.68475 0.31525
0.00000 1814.00000 181.40000 0.68443 0.31557
0.00000 1815.00000 181.50000 0.68414 0.31586
0.00000 1816.00000 181.60000 0.68388 0.31612
0.00000 1817.00000 181.70000 0.68364 0.31636
0.00000 1818.00000 181.80000 0.68343 0.31657
0.00000 1819.00000 181.90000 0.68325 0.31675
0.00000 1820.00000 182.00000 0.68310 0.31690
0.00000 1821.00000 182.10000 0.68298 0.31702
0.00000 1822.00000 182.20000 0.68290 0.31710
0.00000 1823.00000 182.30000 0.68285 0.31715
0.00000 1824.00000 182.40000 0.68283 0.31717
0.00000 1825.00000 182.50000 0.68285 0.31715
0.00000 1826.00000 182.60000 0.68290 0.31710
0.00000 1827.00000 182.70000 0.68299 0.31701
0.00000 1828.00000 182.80000 0.68311 0.31689
0.00000 1829.00000 182.90000 0.68326 0.31674
0.00000 1830.00000 183.00000 0.68346 0.31654
0.00000 1831.00000 183.10000 0.68368 0.31632
0.00000 1832.00000 183.20000 0.68394 0.31606
0.00000 1833.00000 183.30000 0.68423 0.31577
0.00000 1834.00000 183.40000 0.68455 0.31545
0.00000 1835.00000 183.50000 0.68490 0.31510
0.00000 1836.00000 183.60000 0.68529 0.31471
0.00000 1837.00000 183.70000 0.68569 0.31431
0.00000 1838.00000 183.80000 0.68613 0.31387
0.00000 1839.00000 183.90000 0.68659 0.31341
0.00000 1840.00000 184.00000 0.68708 0.31292
0.00000 1841.00000 184.10000 0.68758 0.31242
0.00000 1842.00000 184.20000 0.68811 0.31189
0.00000 1843.00000 184.30000 0.68864 0.31136
0.00000 1844.00000 184.40000 0.68921 0.31079
0.00000 1845.00000 184.50000 0.68977 0.31023
0.00000 1846.00000 184.60000 0.69035 0.30965
0.00000 1847.00000 184.70000 0.69093 0.30907
0.00000 1848.00000 184.80000 0.69153 0.30847
0.00000 1849.00000 184.90000 0.69212 0.30788
0.00000 1850.00000 185.00000 0.69272 0.30728
0.00000 1851.00000 185.10000 0.69330 0.30670
0.00000 1852.00000 185.20000 0.69389 0.30611
0.00000 1853.00000 185.30000 0.69446 0.30554
0.00000 1854.00000 185.40000 0.69503 0.30497
0.00000 1855.00000 185.50000 0.69558 0.30442
0.00000 1856.00000 185.60000 0.69612 0.30388
0.00000 1857.00000 185.70000 0.69663 0.30337
0.00000 1858.00000 185.80000 0.69712 0.30288
0.00000 1859.00000 185.90000 0.69758 0.30242
0.00000 1860.00000 186.00000 0.69803 0.30197
0.00000 1861.00000 186.10000 0.69843 0.30157
0.00000 1862.00000 186.20000 0.69881 0.30119
0.00000 1863.00000 186.30000 0.69914 0.30086
0.00000 1864.00000 186.40000 0.69944 0.30056
0.00000 1865.00000 186.50000 0.69970 0.30030
0.00000 1866.00000 186.60000 0.69992 0.30008
0.00000 1867.00000 186.70000 0.70009 0.29991
0.00000 1868.00000 186.80000 0.70022 0.29978
0.00000 1869.00000 186.90000 0.70029 0.29971
0.00000 1870.00000 187.00000 0.70032 0.29968
0.00000 1871.00000 187.10000 0.70029 0.29971
0.00000 1872.00000 187.20000 0.70022 0.29978
0.00000 1873.00000 187.30000 0.70008 0.29992
0.00000 1874.00000 187.40000 0.69989 0.30011
0.00000 1875.00000 187.50000 0.69964 0.30036
0.00000 1876.00000 187.60000 0.69934 0.30066
0.00000 1877.00000 187.70000 0.69897 0.30103
0.00000 1878.00000 187.80000 0.69855 0.30145
0.00000 1879.00000 187.90000 0.69807 0.30193
0.00000 1880.00000 188.00000 0.69752 0.30248
0.00000 1881.00000 188.10000 0.69692 0.30308
0.00000 1882.00000 188.20000 0.69625 0.30375
0.00000 1883.00000 188.30000 0.69553 0.30447
0.00000 1884.00000 188.40000 0.69475 0.30525
0.00000 1885.00000 188.50000 0.69391 0.30609
0.00000 1886.00000 188.60000 0.69300 0.30700
0.00000 1887.00000 188.70000 0.69205 0.30795
0.00000 1888.00000 188.80000 0.69103 0.30897
0.00000 1889.00000 188.90000 0.68996 0.31004
0.00000 1890.00000 189.00000 0.68883 0.31117
0.00000 1891.00000 189.10000 0.68766 0.31234
0.00000 1892.00000 189.20000 0.68643 0.31357
0.00000 1893.00000 189.30000 0.68515 0.31485
0.00000 1894.00000 189.40000 0.68382 0.31618
0.00000 1895.00000 189.50000 0.68245 0.31755
0.00000 1896.00000 189.60000 0.68103 0.31897
0.00000 1897.00000 189.70000 0.67958 0.32042
0.00000 1898.00000 189.80000 0.67807 0.32193
0.00000 1899.00000 189.90000 0.67654 0.32346
0.00000 1900.00000 190.00000 0.67496 0.32504
0.00000 1901.00000 190.10000 0.67337 0.32663
0.00000 1902.00000 190.20000 0.67172 0.32828
0.00000 1903.00000 190.30000 0.67007 0.32993
0.00000 1904.00000 190.40000 0.66837 0.33163
0.00000 1905.00000 190.50000 0.66667 0.33333
0.00000 1906.00000 190.60000 0.66493 0.33507
0.00000 1907.00000 190.70000 0.66319 0.33681
0.00000 1908.00000 190.80000 0.66141 0.33859
0.00000 1909.00000 190.90000 0.65964 0.34036
0.00000 1910.00000 191.00000 0.65785 0.34215
0.00000 1911.00000 191.10000 0.65606 0.34394
0.00000 1912.00000 191.20000 0.65426 0.34574
0.00000 1913.00000 191.30000 0.65246 0.34754
0.00000 1914.00000 191.40000 0.65066 0.34934
0.00000 1915.00000 191.50000 0.64887 0.35113
0.00000 1916.00000 191.60000 0.64707 0.35293
0.00000 1917.00000 191.70000 0.64529 0.35471
0.00000 1918.00000 191.80000 0.64351 0.35649
0.00000 1919.00000 191.90000 0.64176 0.35824
0.00000 1920.00000 192.00000 0.64001 0.35999
0.00000 1921.00000 192.10000 0.63828 0.36172
0.00000 1922.00000 192.20000 0.63657 0.36343
0.00000 1923.00000 192.30000 0.63489 0.36511
0.00000 1924.00000 192.40000 0.63322 0.36678
0.00000 1925.00000 192.50000 0.63159 0.36841
0.00000 1926.00000 192.60000 0.62997 0.37003
0.00000 1927.00000 192.70000 0.62839 0.37161
0.00000 1928.00000 192.80000 0.62684 0.37316
0.00000 1929.00000 192.90000 0.62532 0.37468
0.00000 1930.00000 193.00000 0.62383 0.37617
0.00000 1931.00000 193.10000 0.62238 0.37762
0.00000 1932.00000 193.20000 0.62097 0.37903
0.00000 1933.00000 193.30000 0.61959 0.38041
0.00000 1934.00000 193.40000 0.61824 0.38176
0.00000 1935.00000 193.50000 0.61694 0.38306
0.00000 1936.00000 193.60000 0.61568 0.38432
0.00000 1937.00000 193.70000 0.61445 0.38555
0.00000 1938.00000 193.80000 0.61328 0.38672
0.00000 1939.00000 193.90000 0.61213 0.38787
0.00000 1940.00000 194.00000 0.61104 0.38896
0.00000 1941.00000 194.10000 0.60998 0.39002
0.00000 1942.00000 194.20000 0.60896 0.39104
0.00000 1943.00000 194.30000 0.60799 0.39201
0.00000 1944.00000 194.40000 0.60706 0.39294
0.00000 1945.00000 194.50000 0.60617 0.39383
0.00000 1946.00000 194.60000 0.60533 0.39467
0.00000 1947.00000 194.70000 0.60452 0.39548
0.00000 1948.00000 194.80000 0.60376 0.39624
0.00000 1949.00000 194.90000 0.60303 0.39697
0.00000 1950.00000 195.00000 0.60235 0.39765
0.00000 1951.00000 195.10000 0.60170 0.39830
0.00000 1952.00000 195.20000 0.60110 0.39890
0.00000 1953.00000 195.30000 0.60053 0.39947
0.00000 1954.00000 195.40000 0.60000 0.40000
0.00000 1955.00000 195.50000 0.59950 0.40050
0.00000 1956.00000 195.60000 0.59905 0.40095
0.00000 1957.00000 195.70000 0.59861 0.40139
0.00000 1958.00000 195.80000 0.59823 0.40177
0.00000 1959.00000 195.90000 0.59786 0.40214
0.00000 1960.00000 196.00000 0.59754 0.40246
0.00000 1961.00000 196.10000 0.59723 0.40277
0.00000 1962.00000 196.20000 0.59696 0.40304
0.00000 1963.00000 196.30000 0.59671 0.40329
0.00000 1964.00000 196.40000 0.59650 0.40350
0.00000 1965.00000 196.50000 0.59629 0.40371
0.00000 1966.00000 196.60000 0.59612 0.40388
0.00000 1967.00000 196.70000 0.59597 0.40403
0.00000 1968.00000 196.80000 0.59584 0.40416
0.00000 1969.00000 196.90000 0.59572 0.40428
0.00000 1970.00000 197.00000 0.59563 0.40437
0.00000 1971.00000 197.10000 0.59554 0.40446
0.00000 1972.00000 197.20000 0.59548 0.40452
0.00000 1973.00000 197.30000 0.59542 0.40458
0.00000 1974.00000 197.40000 0.59538 0.40462
0.00000 1975.00000 197.50000 0.59535 0.40465
0.00000 1976.00000 197.60000 0.59532 0.40468
0.00000 1977.00000 197.70000 0.59530 0.40470
0.00000 1978.00000 197.80000 0.59529 0.40471
0.00000 1979.00000 197.90000 0.59529 0.40471
0.00000 1980.00000 198.00000 0.59528 0.40472
0.00000 1981.00000 198.10000 0.59528 0.40472
0.00000 1982.00000 198.20000 0.59528 0.40472
0.00000 1983.00000 198.30000 0.59528 0.40472
0.00000 1984.00000 198.40000 0.59528 0.40472
0.00000 1985.00000 198.50000 0.59528 0.40472
0.00000 1986.00000 198.60000 0.59527 0.40473
0.00000 1987.00000 198.70000 0.59526 0.40474
0.00000 1988.00000 198.80000 0.59524 0.40476
0.00000 1989.00000 198.90000 0.59522 0.40478
0.00000 1990.00000 199.00000 0.59519 0.40481
0.00000 1991.00000 199.10000 0.59516 0.40484
0.00000 1992.00000 199.20000 0.59511 0.40489
0.00000 1993.00000 199.30000 0.59506 0.40494
0.00000 1994.00000 199.40000 0.59499 0.40501
0.00000 1995.00000 199.50000 0.59492 0.40508
0.00000 1996.00000 199.60000 0.59484 0.40516
0.00000 1997.00000 199.70000 0.59475 0.40525
0.00000 1998.00000 199.80000 0.59464 0.40536
0.00000 1999.00000 199.90000 0.59453 0.40547
0.00000 2000.00000 200.00000 0.59439 0.40561
0.00000 2001.00000 200.10000 0.59426 0.40574
0.00000 2002.00000 200.20000 0.59410 0.40590
0.00000 2003.00000 200.30000 0.59394 0.40606
0.00000 2004.00000 200.40000 0.59376 0.40624
0.00000 2005.00000 200.50000 0.59358 0.40642
0.00000 2006.00000 200.60000 0.59338 0.40662
0.00000 2007.00000 200.70000 0.59317 0.40683
0.00000 2008.00000 200.80000 0.59295 0.40705
0.00000 2009.00000 200.90000 0.59272 0.40728
0.00000 2010.00000 201.00000 0.59247 0.40753
0.00000 2011.00000 201.10000 0.59222 0.40778
0.00000 2012.00000 201.20000 0.59196 0.40804
0.00000 2013.00000 201.30000 0.59169 0.40831
0.00000 2014.00000 201.40000 0.59140 0.40860
0.00000 2015.00000 201.50000 0.59112 0.40888
0.00000 2016.00000 201.60000 0.59082 0.40918
0.00000 2017.00000 201.70000 0.59052 0.40948
0.00000 2018.00000 201.80000 0.59020 0.40980
0.00000 2019.00000 201.90000 0.58989 0.41011
0.00000 2020.00000 202.00000 0.58956 0.41044
0.00000 2021.00000 202.10000 0.58924 0.41076
0.00000 2022.00000 202.20000 0.58890 0.41110
0.00000 2023.00000 202.30000 0.58857 0.41143
0.00000 2024.00000 202.40000 0.58823 0.41177
0.00000 2025.00000 202.50000 0.58789 0.41211
0.00000 2026.00000 202.60000 0.58755 0.41245
0.00000 2027.00000 202.70000 0.58721 0.41279
0.00000 2028.00000 202.80000 0.58687 0.41313
0.00000 2029.00000 202.90000 0.58652 0.41348
0.00000 2030.00000 203.00000 0.58619 0.41381
0.00000 2031.00000 203.10000 0.58585 0.41415
0.00000 2032.00000 203.20000 0.58551 0.41449
0.00000 2033.00000 203.30000 0.58518 0.41482
0.00000 2034.00000 203.40000 0.58485 0.41515
0.00000 2035.00000 203.50000 0.58452 0.41548
0.00000 2036.00000 203.60000 0.58421 0.41579
0.00000 2037.00000 203.70000 0.58389 0.41611
0.00000 2038.00000 203.80000 0.58358 0.41642
0.00000 2039.00000 203.90000 0.58327 0.41673
0.00000 2040.00000 204.00000 0.58298 0.41702
0.00000 2041.00000 204.10000 0.58269 0.41731
0.00000 2042.00000 204.20000 0.58241 0.41759
0.00000 2043.00000 204.30000 0.58213 0.41787
0.00000 2044.00000 204.40000 0.58187 0.41813
0.00000 2045.00000 204.50000 0.58160 0.41840
0.00000 2046.00000 204.60000 0.58135 0.41865
0.00000 2047.00000 204.70000 0.58110 0.41890
0.00000 2048.00000 204.80000 0.58087 0.41913
0.00000 2049.00000 204.90000 0.58063 0.41937
0.00000 2050.00000 205.00000 0.58042 0.41958
0.00000 2051.00000 205.10000 0.58020 0.41980
0.00000 2052.00000 205.20000 0.58001 0.41999
0.00000 2053.00000 205.30000 0.57980 0.42020
0.00000 2054.00000 205.40000 0.57962 0.42038
0.00000 2055.00000 205.50000 0.57943 0.42057
0.00000 2056.00000 205.60000 0.57927 0.42073
0.00000 2057.00000 205.70000 0.57910 0.42090
0.00000 2058.00000 205.80000 0.57895 0.42105
0.00000 2059.00000 205.90000 0.57879 0.42121
0.00000 2060.00000 206.00000 0.57865 0.42135
0.00000 2061.00000 206.10000 0.57851 0.42149
0.00000 2062.00000 206.20000 0.57838 0.42162
0.00000 2063.00000 206.30000 0.57825 0.42175
0.00000 2064.00000 206.40000 0.57814 0.42186
0.00000 2065.00000 206.50000 0.57802 0.42198
0.00000 2066.00000 206.60000 0.57791 0.42209
0.00000 2067.00000 206.70000 0.57780 0.42220
0.00000 2068.00000 206.80000 0.57771 0.42229
0.00000 2069.00000 206.90000 0.57761 0.42239
0.00000 2070.00000 207.00000 0.57753 0.42247
0.00000 2071.00000 207.10000 0.57744 0.42256
0.00000 2072.00000 207.20000 0.57736 0.42264
0.00000 2073.00000 207.30000 0.57728 0.42272
0.00000 2074.00000 207.40000 0.57721 0.42279
0.00000 2075.00000 207.50000 0.57714 0.42286
0.00000 2076.00000 207.60000 0.57708 0.42292
0.00000 2077.00000 207.70000 0.57701 0.42299
0.00000 2078.00000 207.80000 0.57696 0.42304
0.00000 2079.00000 207.90000 0.57691 0.42309
0.00000 2080.00000 208.00000 0.57686 0.42314
0.00000 2081.00000 208.10000 0.57682 0.42318
0.00000 2082.00000 208.20000 0.57678 0.42322
0.00000 2083.00000 208.30000 0.57675 0.42325
0.00000 2084.00000 208.40000 0.57672 0.42328
0.00000 2085.00000 208.50000 0.57670 0.42330
0.00000 2086.00000 208.60000 0.57669 0.42331
0.00000 2087.00000 208.70000 0.57668 0.42332
0.00000 2088.00000 208.80000 0.57668 0.42332
0.00000 2089.00000 208.90000 0.57670 0.42330
0.00000 2090.00000 209.00000 0.57672 0.42328
0.00000 2091.00000 209.10000 0.57675 0.42325
0.00000 2092.00000 209.20000 0.57679 0.42321
0.00000 2093.00000 209.30000 0.57684 0.42316
0.00000 2094.00000 209.40000 0.57691 0.42309
0.00000 2095.00000 209.50000 0.57699 0.42301
0.00000 2096.00000 209.60000 0.57709 0.42291
0.00000 2097.00000 209.70000 0.57720 0.42280
0.00000 2098.00000 209.80000 0.57733 0.42267
0.00000 2099.00000 209.90000 0.57747 0.42253
0.00000 2100.00000 210.00000 0.57764 0.42236
0.00000 2101.00000 210.10000 0.57783 0.42217
0.00000 2102.00000 210.20000 0.57803 0.42197
0.00000 2103.00000 210.30000 0.57826 0.42174
0.00000 2104.00000 210.40000 0.57851 0.42149
0.00000 2105.00000 210.50000 0.57879 0.42121
0.00000 2106.00000 210.60000 0.57909 0.42091
0.00000 2107.00000 210.70000 0.57942 0.42058
0.00000 2108.00000 210.80000 0.57978 0.42022
0.00000 2109.00000 210.90000 0.58017 0.41983
0.00000 2110.00000 211.00000 0.58058 0.41942
0.00000 2111.00000 211.10000 0.58103 0.41897
0.00000 2112.00000 211.20000 0.58150 0.41850
0.00000 2113.00000 211.30000 0.58202 0.41798
0.00000 2114.00000 211.40000 0.58256 0.41744
0.00000 2115.00000 211.50000 0.58314 0.41686
0.00000 2116.00000 211.60000 0.58375 0.41625
0.00000 2117.00000 211.70000 0.58440 0.41560
0.00000 2118.00000 211.80000 0.58507 0.41493
0.00000 2119.00000 211.90000 0.58580 0.41420
0.00000 2120.00000 212.00000 0.58654 0.41346
0.00000 2121.00000 212.10000 0.58734 0.41266
0.00000 2122.00000 212.20000 0.58816 0.41184
0.00000 2123.00000 212.30000 0.58902 0.41098
0.00000 2124.00000 212.40000 0.58991 0.41009
0.00000 2125.00000 212.50000 0.59085 0.40915
0.00000 2126.00000 212.60000 0.59181 0.40819
0.00000 2127.00000 212.70000 0.59281 0.40719
0.00000 2128.00000 212.80000 0.59384 0.40616
0.00000 2129.00000 212.90000 0.59491 0.40509
0.00000 2130.00000 213.00000 0.59601 0.40399
0.00000 2131.00000 213.10000 0.59714 0.40286
0.00000 2132.00000 213.20000 0.59829 0.40171
0.00000 2133.00000 213.30000 0.59948 0.40052
0.00000 2134.00000 213.40000 0.60069 0.39931
0.00000 2135.00000 213.50000 0.60193 0.39807
0.00000 2136.00000 213.60000 0.60318 0.39682
0.00000 2137.00000 213.70000 0.60447 0.39553
0.00000 2138.00000 213.80000 0.60576 0.39424
0.00000 2139.00000 213.90000 0.60708 0.39292
0.00000 2140.00000 214.00000 0.60841 0.39159
0.00000 2141.00000 214.10000 0.60976 0.39024
0.00000 2142.00000 214.20000 0.61111 0.38889
0.00000 2143.00000 214.30000 0.61247 0.38753
0.00000 2144.00000 214.40000 0.61383 0.38617
0.00000 2145.00000 214.50000 0.61520 0.38480
0.00000 2146.00000 214.60000 0.61657 0.38343
0.00000 2147.00000 214.70000 0.61793 0.38207
0.00000 2148.00000 214.80000 0.61929 0.38071
0.00000 2149.00000 214.90000 0.62064 0.37936
0.00000 2150.00000 215.00000 0.62197 0.37803
0.00000 2151.00000 215.10000 0.62330 0.37670
0.00000 2152.00000 215.20000 0.62460 0.37540
0.00000 2153.00000 215.30000 0.62588 0.37412
0.00000 2154.00000 215.40000 0.62713 0.37287
0.00000 2155.00000 215.50000 0.62836 0.37164
0.00000 2156.00000 215.60000 0.62956 0.37044
0.00000 2157.00000 215.70000 0.63072 0.36928
0.00000 2158.00000 215.80000 0.63185 0.36815
0.00000 2159.00000 215.90000 0.63293 0.36707
0.00000 2160.00000 216.00000 0.63398 0.36602
0.00000 2161.00000 216.10000 0.63498 0.36502
0.00000 2162.00000 216.20000 0.63593 0.36407
0.00000 2163.00000 216.30000 0.63682 0.36318
0.00000 2164.00000 216.40000 0.63767 0.36233
0.00000 2165.00000 216.50000 0.63846 0.36154
0.00000 2166.00000 216.60000 0.63919 0.36081
0.00000 2167.00000 216.70000 0.63985 0.36015
0.00000 2168.00000 216.80000 0.64046 0.35954
0.00000 2169.00000 216.90000 0.64100 0.35900
0.00000 2170.00000 217.00000 0.64147 0.35853
0.00000 2171.00000 217.10000 0.64187 0.35813
0.00000 2172.00000 217.20000 0.64221 0.35779
0.00000 2173.00000 217.30000 0.64246 0.35754
0.00000 2174.00000 217.40000 0.64265 0.35735
0.00000 2175.00000 217.50000 0.64276 0.35724
0.00000 2176.00000 217.60000 0.64280 0.35720
0.00000 2177.00000 217.70000 0.64276 0.35724
0.00000 2178.00000 217.80000 0.64265 0.35735
0.00000 2179.00000 217.90000 0.64245 0.35755
0.00000 2180.00000 218.00000 0.64218 0.35782
0.00000 2181.00000 218.10000 0.64182 0.35818
0.00000 2182.00000 218.20000 0.64140 0.35860
0.00000 2183.00000 218.30000 0.64089 0.35911
0.00000 2184.00000 218.40000 0.64031 0.35969
0.00000 2185.00000 218.50000 0.63964 0.36036
0.00000 2186.00000 218.60000 0.63891 0.36109
0.00000 2187.00000 218.70000 0.63810 0.36190
0.00000 2188.00000 218.80000 0.63722 0.36278
0.00000 2189.00000 218.90000 0.63626 0.36374
0.00000 2190.00000 219.00000 0.63524 0.36476
0.00000 2191.00000 219.10000 0.63414 0.36586
0.00000 2192.00000 219.20000 0.63298 0.36702
0.00000 2193.00000 219.30000 0.63175 0.36825
0.00000 2194.00000 219.40000 0.63047 0.36953
0.00000 2195.00000 219.50000 0.62911 0.37089
0.00000 2196.00000 219.60000 0.62771 0.37229
0.00000 2197.00000 219.70000 0.62624 0.37376
0.00000 2198.00000 219.80000 0.62473 0.37527
0.00000 2199.00000 219.90000 0.62316 0.37684
0.00000 2200.00000 220.00000 0.62156 0.37844
0.00000 2201.00000 220.10000 0.61989 0.38011
0.00000 2202.00000 220.20000 0.61820 0.38180
0.00000 2203.00000 220.30000 0.61646 0.38354
0.00000 2204.00000 220.40000 0.61470 0.38530
0.00000 2205.00000 220.50000 0.61289 0.38711
0.00000 2206.00000 220.60000 0.61107 0.38893
0.00000 2207.00000 220.70000 0.60921 0.39079
0.00000 2208.00000 220.80000 0.60734 0.39266
0.00000 2209.00000 220.90000 0.60545 0.39455
0.00000 2210.00000 221.00000 0.60355 0.39645
0.00000 2211.00000 221.10000 0.60163 0.39837
0.00000 2212.00000 221.20000 0.59971 0.40029
0.00000 2213.00000 221.30000 0.59778 0.40222
0.00000 2214.00000 221.40000 0.59585 0.40415
0.00000 2215.00000 221.50000 0.59393 0.40607
0.00000 2216.00000 221.60000 0.59201 0.40799
0.00000 2217.00000 221.70000 0.59010 0.40990
0.00000 2218.00000 221.80000 0.58820 0.41180
0.00000 2219.00000 221.90000 0.58632 0.41368
0.00000 2220.00000 222.00000 0.58446 0.41554
0.00000 2221.00000 222.10000 0.58262 0.41738
0.00000 2222.00000 222.20000 0.58080 0.41920
0.00000 2223.00000 222.30000 0.57901 0.42099
0.00000 2224.00000 222.40000 0.57725 0.42275
0.00000 2225.00000 222.50000 0.57552 0.42448
0.00000 2226.00000 222.60000 0.57382 0.42618
0.00000 2227.00000 222.70000 0.57217 0.42783
0.00000 2228.00000 222.80000 0.57054 0.42946
0.00000 2229.00000 222.90000 0.56897 0.43103
0.00000 2230.00000 223.00000 0.56743 0.43257
0.00000 2231.00000 223.10000 0.56594 0.43406
0.00000 2232.00000 223.20000 0.56449 0.43551
0.00000 2233.00000 223.30000 0.56309 0.43691
0.00000 2234.00000 223.40000 0.56173 0.43827
0.00000 2235.00000 223.50000 0.56043 0.43957
0.00000 2236.00000 223.60000 0.55917 0.44083
0.00000 2237.00000 223.70000 0.55797 0.44203
0.00000 2238.00000 223.80000 0.55682 0.44318
0.00000 2239.00000 223.90000 0.55572 0.44428
0.00000 2240.00000 224.00000 0.55466 0.44534
0.00000 2241.00000 224.10000 0.55367 0.44633
0.00000 2242.00000 224.20000 0.55272 0.44728
0.00000 2243.00000 224.30000 0.55183 0.44817
0.00000 2244.00000 224.40000 0.55098 0.44902
0.00000 2245.00000 224.50000 0.55019 0.44981
0.00000 2246.00000 224.60000 0.54945 0.45055
0.00000 2247.00000 224.70000 0.54876 0.45124
0.00000 2248.00000 224.80000 0.54811 0.45189
0.00000 2249.00000 224.90000 0.54751 0.45249
0.00000 2250.00000 225.00000 0.54696 0.45304
0.00000 2251.00000 225.10000 0.54646 0.45354
0.00000 2252.00000 225.20000 0.54599 0.45401
0.00000 2253.00000 225.30000 0.54557 0.45443
0.00000 2254.00000 225.40000 0.54518 0.45482
0.00000 2255.00000 225.50000 0.54485 0.45515
0.00000 2256.00000 225.60000 0.54454 0.45546
0.00000 2257.00000 225.70000 0.54427 0.45573
0.00000 2258.00000 225.80000 0.54403 0.45597
0.00000 2259.00000 225.90000 0.54383 0.45617
0.00000 2260.00000 226.00000 0.54365 0.45635
0.00000 2261.00000 226.10000 0.54351 0.45649
0.00000 2262.00000 226.20000 0.54338 0.45662
0.00000 2263.00000 226.30000 0.54328 0.45672
0.00000 2264.00000 226.40000 0.54320 0.45680
0.00000 2265.00000 226.50000 0.54314 0.45686
0.00000 2266.00000 226.60000 0.54309 0.45691
0.00000 2267.00000 226.70000 0.54307 0.45693
0.00000 2268.00000 226.80000 0.54304 0.45696
0.00000 2269.00000 226.90000 0.54304 0.45696
0.00000 2270.00000 227.00000 0.54303 0.45697
0.00000 2271.00000 227.10000 0.54305 0.45695
0.00000 2272.00000 227.20000 0.54305 0.45695
0.00000 2273.00000 227.30000 0.54307 0.45693
0.00000 2274.00000 227.40000 0.54307 0.45693
0.00000 2275.00000 227.50000 0.54308 0.45692
0.00000 2276.00000 227.60000 0.54308 0.45692
0.00000 2277.00000 227.70000 0.54308 0.45692
0.00000 2278.00000 227.80000 0.54307 0.45693
0.00000 2279.00000 227.90000 0.54305 0.45695
0.00000 2280.00000 228.00000 0.54302 0.45698
0.00000 2281.00000 228.10000 0.54298 0.45702
0.00000 2282.00000 228.20000 0.54292 0.45708
0.00000 2283.00000 228.30000 0.54285 0.45715
0.00000 2284.00000 228.40000 0.54276 0.45724
0.00000 2285.00000 228.50000 0.54265 0.45735
0.00000 2286.00000 228.60000 0.54252 0.45748
0.00000 2287.00000 228.70000 0.54238 0.45762
0.00000 2288.00000 228.80000 0.54221 0.45779
0.00000 2289.00000 228.90000 0.54202 0.45798
0.00000 2290.00000 229.00000 0.54181 0.45819
0.00000 2291.00000 229.10000 0.54157 0.45843
0.00000 2292.00000 229.20000 0.54131 0.45869
0.00000 2293.00000 229.30000 0.54103 0.45897
0.00000 2294.00000 229.40000 0.54073 0.45927
0.00000 2295.00000 229.50000 0.54040 0.45960
0.00000 2296.00000 229.60000 0.54004 0.45996
0.00000 2297.00000 229.70000 0.53966 0.46034
0.00000 2298.00000 229.80000 0.53927 0.46073
0.00000 2299.00000 229.90000 0.53884 0.46116
0.00000 2300.00000 230.00000 0.53839 0.46161
0.00000 2301.00000 230.10000 0.53792 0.46208
0.00000 2302.00000 230.20000 0.53743 0.46257
0.00000 2303.00000 230.30000 0.53691 0.46309
0.00000 2304.00000 230.40000 0.53638 0.46362
0.00000 2305.00000 230.50000 0.53582 0.46418
0.00000 2306.00000 230.60000 0.53525 0.46475
0.00000 2307.00000 230.70000 0.53465 0.46535
0.00000 2308.00000 230.80000 0.53405 0.46595
0.00000 2309.00000 230.90000 0.53342 0.46658
0.00000 2310.00000 231.00000 0.53278 0.46722
0.00000 2311.00000 231.10000 0.53212 0.46788
0.00000 2312.00000 231.20000 0.53146 0.46854
0.00000 2313.00000 231.30000 0.53078 0.46922
0.00000 2314.00000 231.40000 0.53010 0.46990
0.00000 2315.00000 231.50000 0.52939 0.47061
0.00000 2316.00000 231.60000 0.52869 0.47131
0.00000 2317.00000 231.70000 0.52798 0.47202
0.00000 2318.00000 231.80000 0.52727 0.47273
0.00000 2319.00000 231.90000 0.52655 0.47345
0.00000 2320.00000 232.00000 0.52584 0.47416
0.00000 2321.00000 232.10000 0.52511 0.47489
0.00000 2322.00000 232.20000 0.52440 0.47560
0.00000 2323.00000 232.30000 0.52368 0.47632
0.00000 2324.00000 232.40000 0.52297 0.47703
0.00000 2325.00000 232.50000 0.52226 0.47774
0.00000 2326.00000 232.60000 0.52157 0.47843
0.00000 2327.00000 232.70000 0.52087 0.47913
0.00000 2328.00000 232.80000 0.52020 0.47980
0.00000 2329.00000 232.90000 0.51952 0.48048
0.00000 2330.00000 233.00000 0.51887 0.48113
0.00000 2331.00000 233.10000 0.51822 0.48178
0.00000 2332.00000 233.20000 0.51759 0.48241
0.00000 2333.00000 233.30000 0.51697 0.48303
0.00000 2334.00000 233.40000 0.51637 0.48363
0.00000 2335.00000 233.50000 0.51578 0.48422
0.00000 2336.00000 233.60000 0.51522 0.48478
0.00000 2337.00000 233.70000 0.51467 0.48533
0.00000 2338.00000 233.80000 0.51414 0.48586
0.00000 2339.00000 233.90000 0.51363 0.48637
0.00000 2340.00000 234.00000 0.51314 0.48686
0.00000 2341.00000 234.10000 0.51267 0.48733
0.00000 2342.00000 234.20000 0.51223 0.48777
0.00000 2343.00000 234.30000 0.51180 0.48820
0.00000 2344.00000 234.40000 0.51140 0.48860
0.00000 2345.00000 234.50000 0.51102 0.48898
0.00000 2346.00000 234.60000 0.51066 0.48934
0.00000 2347.00000 234.70000 0.51032 0.48968
0.00000 2348.00000 234.80000 0.51001 0.48999
0.00000 2349.00000 234.90000 0.50971 0.49029
0.00000 2350.00000 235.00000 0.50944 0.49056
0.00000 2351.00000 235.10000 0.50919 0.49081
0.00000 2352.00000 235.20000 0.50896 0.49104
0.00000 2353.00000 235.30000 0.50875 0.49125
0.00000 2354.00000 235.40000 0.50856 0.49144
0.00000 2355.00000 235.50000 0.50839 0.49161
0.00000 2356.00000 235.60000 0.50823 0.49177
0.00000 2357.00000 235.70000 0.50810 0.49190
0.00000 2358.00000 235.80000 0.50798 0.49202
0.00000 2359.00000 235.90000 0.50788 0.49212
0.00000 2360.00000 236.00000 0.50779 0.49221
0.00000 2361.00000 236.10000 0.50772 0.49228
0.00000 2362.00000 236.20000 0.50765 0.49235
0.00000 2363.00000 236.30000 0.50761 0.49239
0.00000 2364.00000 236.40000 0.50756 0.49244
0.00000 2365.00000 236.50000 0.50754 0.49246
0.00000 2366.00000 236.60000 0.50751 0.49249
0.00000 2367.00000 236.70000 0.50750 0.49250
0.00000 2368.00000 236.80000 0.50749 0.49251
0.00000 2369.00000 236.90000 0.50749 0.49251
0.00000 2370.00000 237.00000 0.50748 0.49252
0.00000 2371.00000 237.10000 0.50749 0.49251
0.00000 2372.00000 237.20000 0.50748 0.49252
0.00000 2373.00000 237.30000 0.50749 0.49251
0.00000 2374.00000 237.40000 0.50748 0.49252
0.00000 2375.00000 237.50000 0.50748 0.49252
0.00000 2376.00000 237.60000 0.50746 0.49254
0.00000 2377.00000 237.70000 0.50745 0.49255
0.00000 2378.00000 237.80000 0.50742 0.49258
0.00000 2379.00000 237.90000 0.50739 0.49261
0.00000 2380.00000 238.00000 0.50734 0.49266
0.00000 2381.00000 238.10000 0.50729 0.49271
0.00000 2382.00000 238.20000 0.50721 0.49279
0.00000 2383.00000 238.30000 0.50714 0.49286
0.00000 2384.00000 238.40000 0.50703 0.49297
0.00000 2385.00000 238.50000 0.50692 0.49308
0.00000 2386.00000 238.60000 0.50679 0.49321
0.00000 2387.00000 238.70000 0.50664 0.49336
0.00000 2388.00000 238.80000 0.50647 0.49353
0.00000 2389.00000 238.90000 0.50629 0.49371
0.00000 2390.00000 239.00000 0.50607 0.49393
0.00000 2391.00000 239.10000 0.50585 0.49415
0.00000 2392.00000 239.20000 0.50559 0.49441
0.00000 2393.00000 239.30000 0.50532 0.49468
0.00000 2394.00000 239.40000 0.50501 0.49499
0.00000 2395.00000 239.50000 0.50469 0.49531
0.00000 2396.00000 239.60000 0.50434 0.49566
0.00000 2397.00000 239.70000 0.50397 0.49603
0.00000 2398.00000 239.80000 0.50357 0.49643
0.00000 2399.00000 239.90000 0.50315 0.49685
0.00000 2400.00000 240.00000 0.50270 0.49730
0.00000 2401.00000 240.10000 0.50223 0.49777
0.00000 2402.00000 240.20000 0.50173 0.49827
0.00000 2403.00000 240.30000 0.50121 0.49879
0.00000 2404.00000 240.40000 0.50066 0.49934
0.00000 2405.00000 240.50000 0.50009 0.49991
0.00000 2406.00000 240.60000 0.49949 0.50051
0.00000 2407.00000 240.70000 0.49887 0.50113
0.00000 2408.00000 240.80000 0.49823 0.50177
0.00000 2409.00000 240.90000 0.49756 0.50244
0.00000 2410.00000 241.00000 0.49687 0.50313
0.00000 2411.00000 241.10000 0.49616 0.50384
0.00000 2412.00000 241.20000 0.49542 0.50458
0.00000 2413.00000 241.30000 0.49467 0.50533
0.00000 2414.00000 241.40000 0.49390 0.50610
0.00000 2415.00000 241.50000 0.49311 0.50689
0.00000 2416.00000 241.60000 0.49230 0.50770
0.00000 2417.00000 241.70000 0.49148 0.50852
0.00000 2418.00000 241.80000 0.49064 0.50936
0.00000 2419.00000 241.90000 0.48979 0.51021
0.00000 2420.00000 242.00000 0.48892 0.51108
0.00000 2421.00000 242.10000 0.48804 0.51196
0.00000 2422.00000 242.20000 0.48715 0.51285
0.00000 2423.00000 242.30000 0.48626 0.51374
0.00000 2424.00000 242.40000 0.48535 0.51465
0.00000 2425.00000 242.50000 0.48444 0.51556
0.00000 2426.00000 242.60000 0.48352 0.51648
0.00000 2427.00000 242.70000 0.48260 0.51740
0.00000 2428.00000 242.80000 0.48168 0.51832
0.00000 2429.00000 242.90000 0.48075 0.51925
0.00000 2430.00000 243.00000 0.47983 0.52017
0.00000 2431.00000 243.10000 0.47891 0.52109
0.00000 2432.00000 243.20000 0.47799 0.52201
0.00000 2433.00000 243.30000 0.47707 0.52293
0.00000 2434.00000 243.40000 0.47617 0.52383
0.00000 2435.00000 243.50000 0.47527 0.52473
0.00000 2436.00000 243.60000 0.47438 0.52562
0.00000 2437.00000 243.70000 0.47349 0.52651
0.00000 2438.00000 243.80000 0.47263 0.52737
0.00000 2439.00000 243.90000 0.47176 0.52824
0.00000 2440.00000 244.00000 0.47093 0.52907
0.00000 2441.00000 244.10000 0.47009 0.52991
0.00000 2442.00000 244.20000 0.46929 0.53071
0.00000 2443.00000 244.30000 0.46849 0.53151
0.00000 2444.00000 244.40000 0.46772 0.53228
0.00000 2445.00000 244.50000 0.46696 0.53304
0.00000 2446.00000 244.60000 0.46623 0.53377
0.00000 2447.00000 244.70000 0.46551 0.53449
0.00000 2448.00000 244.80000 0.46483 0.53517
0.00000 2449.00000 244.90000 0.46416 0.53584
0.00000 2450.00000 245.00000 0.46352 0.53648
0.00000 2451.00000 245.10000 0.46290 0.53710
0.00000 2452.00000 245.20000 0.46232 0.53768
0.00000 2453.00000 245.30000 0.46175 0.53825
0.00000 2454.00000 245.40000 0.46122 0.53878
0.00000 2455.00000 245.50000 0.46071 0.53929
0.00000 2456.00000 245.60000 0.46023 0.53977
0.00000 2457.00000 245.70000 0.45978 0.54022
0.00000 2458.00000 245.80000 0.45936 0.54064
0.00000 2459.00000 245.90000 0.45896 0.54104
0.00000 2460.00000 246.00000 0.45860 0.54140
0.00000 2461.00000 246.10000 0.45826 0.54174
0.00000 2462.00000 246.20000 0.45796 0.54204
0.00000 2463.00000 246.30000 0.45768 0.54232
0.00000 2464.00000 246.40000 0.45744 0.54256
0.00000 2465.00000 246.50000 0.45722 0.54278
0.00000 2466.00000 246.60000 0.45704 0.54296
0.00000 2467.00000 246.70000 0.45688 0.54312
0.00000 2468.00000 246.80000 0.45675 0.54325
0.00000 2469.00000 246.90000 0.45665 0.54335
0.00000 2470.00000 247.00000 0.45658 0.54342
0.00000 2471.00000 247.10000 0.45653 0.54347
0.00000 2472.00000 247.20000 0.45651 0.54349
0.00000 2473.00000 247.30000 0.45651 0.54349
0.00000 2474.00000 247.40000 0.45655 0.54345
0.00000 2475.00000 247.50000 0.45660 0.54340
0.00000 2476.00000 247.60000 0.45668 0.54332
0.00000 2477.00000 247.70000 0.45678 0.54322
0.00000 2478.00000 247.80000 0.45691 0.54309
0.00000 2479.00000 247.90000 0.45706 0.54294
0.00000 2480.00000 248.00000 0.45723 0.54277
0.00000 2481.00000 248.10000 0.45741 0.54259
0.00000 2482.00000 248.20000 0.45762 0.54238
0.00000 2483.00000 248.30000 0.45784 0.54216
0.00000 2484.00000 248.40000 0.45808 0.54192
0.00000 2485.00000 248.50000 0.45834 0.54166
0.00000 2486.00000 248.60000 0.45861 0.54139
0.00000 2487.00000 248.70000 0.45890 0.54110
0.00000 2488.00000 248.80000 0.45919 0.54081
0.00000 2489.00000 248.90000 0.45950 0.54050
0.00000 2490.00000 249.00000 0.45982 0.54018
0.00000 2491.00000 249.10000 0.46015 0.53985
0.00000 2492.00000 249.20000 0.46048 0.53952
0.00000 2493.00000 249.30000 0.46083 0.53917
0.00000 2494.00000 249.40000 0.46118 0.53882
0.00000 2495.00000 249.50000 0.46153 0.53847
0.00000 2496.00000 249.60000 0.46189 0.53811
0.00000 2497.00000 249.70000 0.46225 0.53775
0.00000 2498.00000 249.80000 0.46261 0.53739
0.00000 2499.00000 249.90000 0.46298 0.53702
0.00000 2500.00000 250.00000 0.46334 0.53666
